OOIBase32 Version 2.0.1.4 Data File
++++++++++++++++++++++++++++++++++++
Date: 11-03-2025, 10:13:27
User: Valued Ocean Optics Customer
Spectrometer Serial Number: HR2B216
Spectrometer Channel: Master
Integration Time (msec): 5
Spectra Averaged: 80
Boxcar Smoothing: 0
Correct for Electrical Dark: Disabled
Time Normalized: Disabled
Dual-beam Reference: Disabled
Reference Channel: Master
Temperature: Not acquired
Spectrometer Type: S2000
ADC Type: HR2000
Number of Pixels in File: 2048
Graph Title: 
>>>>>Begin Spectral Data<<<<<
373.12	0.000
373.35	0.000
373.59	75.510
373.82	-19.512
374.06	-21.054
374.29	57.627
374.53	-25.924
374.76	20.001
375.00	64.708
375.23	250.061
375.47	658.329
375.70	-6.451
375.94	-65.624
376.17	-89.999
376.40	11.765
376.64	-110.524
376.87	-74.992
377.11	6.122
377.34	0.000
377.58	-7.143
377.81	-61.537
378.05	-4.286
378.28	-133.330
378.52	-118.183
378.75	-35.135
378.99	-100.000
379.22	-78.125
379.45	2.667
379.69	45.000
379.92	-31.147
380.16	-69.999
380.39	-130.771
380.63	10.975
380.86	-60.000
381.10	76.623
381.33	-1.923
381.56	-82.761
381.80	45.679
382.03	93.333
382.27	1.851
382.50	42.308
382.74	-299.986
382.97	633.367
383.21	-85.001
383.44	81.482
383.67	5.882
383.91	12.280
384.14	-130.005
384.38	72.729
384.61	22.785
384.84	26.315
385.08	-64.000
385.31	-254.553
385.55	157.148
385.78	-2400.611
386.02	-5.357
386.25	50.000
386.48	30.000
386.72	-1449.893
386.95	27.660
387.19	35.849
387.42	36.842
387.65	22.448
387.89	-246.423
388.12	-27.537
388.36	-26.250
388.59	60.275
388.82	10.770
389.06	45.762
389.29	-7.144
389.53	1.333
389.76	61.333
389.99	-1200.285
390.23	-112.126
390.46	-97.875
390.70	-51.612
390.93	71.154
391.16	-24.999
391.40	-8.825
391.63	27.942
391.87	71.427
392.10	74.419
392.33	86.885
392.57	57.143
392.80	-56.252
393.03	-104.166
393.27	-26.745
393.50	20.755
393.74	-100.003
393.97	15.278
394.20	26.316
394.44	77.273
394.67	34.211
394.90	28.122
395.14	-70.000
395.37	32.143
395.60	-25.609
395.84	81.082
396.07	43.243
396.31	4.839
396.54	16.854
396.77	19.671
397.01	-49.207
397.24	-14.287
397.47	-48.437
397.71	32.052
397.94	51.349
398.17	-35.292
398.41	-426.309
398.64	-36.067
398.87	29.166
399.11	22.322
399.34	18.750
399.57	-47.001
399.81	35.555
400.04	84.932
400.27	56.800
400.51	21.333
400.74	26.416
400.97	52.747
401.21	34.376
401.44	62.500
401.67	14.085
401.91	14.864
402.14	32.593
402.37	14.765
402.61	15.464
402.84	49.618
403.07	39.038
403.31	17.500
403.54	14.466
403.77	45.098
404.00	52.100
404.24	34.146
404.47	36.364
404.70	6.015
404.94	27.200
405.17	26.612
405.40	20.513
405.64	7.738
405.87	40.251
406.10	31.168
406.34	38.519
406.57	86.046
406.80	33.987
407.03	44.805
407.27	13.253
407.50	29.203
407.73	40.117
407.97	55.497
408.20	39.444
408.43	57.513
408.66	58.242
408.90	38.049
409.13	39.442
409.36	39.474
409.60	36.250
409.83	34.746
410.06	46.931
410.29	41.636
410.53	59.144
410.76	36.431
410.99	30.657
411.22	28.214
411.46	33.813
411.69	42.769
411.92	48.066
412.16	34.035
412.39	35.632
412.62	50.371
412.85	43.902
413.09	52.481
413.32	62.696
413.55	53.693
413.78	41.875
414.02	31.014
414.25	48.611
414.48	47.561
414.71	41.751
414.95	49.249
415.18	48.193
415.41	57.767
415.64	48.900
415.88	48.108
416.11	36.215
416.34	36.438
416.57	45.882
416.80	36.580
417.04	53.924
417.27	47.393
417.50	60.412
417.73	50.620
417.97	45.556
418.20	50.560
418.43	43.416
418.66	46.217
418.90	46.767
419.13	52.092
419.36	48.327
419.59	44.688
419.82	52.555
420.06	56.272
420.29	57.218
420.52	48.440
420.75	54.446
420.98	47.463
421.22	51.155
421.45	48.600
421.68	49.689
421.91	48.475
422.15	48.131
422.38	41.329
422.61	54.560
422.84	48.406
423.07	55.824
423.31	46.204
423.54	50.704
423.77	56.432
424.00	40.730
424.23	47.548
424.46	48.634
424.70	49.687
424.93	50.972
425.16	47.847
425.39	45.417
425.62	49.827
425.86	48.949
426.09	52.422
426.32	53.061
426.55	46.209
426.78	48.115
427.01	50.911
427.25	52.263
427.48	49.779
427.71	47.972
427.94	48.876
428.17	47.739
428.40	52.752
428.64	52.754
428.87	49.024
429.10	51.172
429.33	52.513
429.56	49.363
429.79	48.247
430.03	47.211
430.26	46.713
430.49	48.366
430.72	48.512
430.95	50.864
431.18	46.660
431.42	48.544
431.65	49.229
431.88	50.864
432.11	50.346
432.34	50.483
432.57	50.340
432.80	46.166
433.04	47.884
433.27	49.919
433.50	48.430
433.73	51.349
433.96	50.346
434.19	43.675
434.42	48.859
434.65	47.346
434.89	47.836
435.12	51.267
435.35	49.149
435.58	49.521
435.81	48.917
436.04	48.470
436.27	48.830
436.50	50.524
436.74	49.801
436.97	47.313
437.20	46.658
437.43	47.282
437.66	47.011
437.89	49.267
438.12	47.320
438.35	46.977
438.58	48.278
438.82	48.727
439.05	48.266
439.28	46.984
439.51	46.612
439.74	45.445
439.97	47.457
440.20	47.187
440.43	47.131
440.66	48.457
440.89	48.485
441.12	50.195
441.36	49.503
441.59	46.723
441.82	49.224
442.05	50.327
442.28	47.950
442.51	48.125
442.74	47.163
442.97	48.330
443.20	49.165
443.43	46.786
443.66	49.009
443.89	45.797
444.13	46.766
444.36	47.596
444.59	47.781
444.82	46.029
445.05	46.276
445.28	48.797
445.51	47.925
445.74	47.100
445.97	46.752
446.20	47.415
446.43	47.166
446.66	47.671
446.89	48.549
447.12	45.437
447.35	46.421
447.58	46.156
447.81	45.973
448.05	45.511
448.28	45.988
448.51	46.501
448.74	47.483
448.97	46.564
449.20	46.190
449.43	47.634
449.66	48.218
449.89	46.578
450.12	47.220
450.35	46.877
450.58	45.520
450.81	45.896
451.04	46.010
451.27	46.463
451.50	47.202
451.73	46.803
451.96	45.946
452.19	47.605
452.42	46.631
452.65	45.845
452.88	46.975
453.11	45.658
453.34	46.522
453.57	47.436
453.80	45.920
454.03	47.248
454.26	48.079
454.49	47.329
454.72	46.822
454.95	45.132
455.18	47.628
455.41	47.251
455.64	46.174
455.87	46.984
456.10	47.376
456.33	47.002
456.56	47.190
456.79	46.246
457.02	45.640
457.25	46.586
457.48	44.925
457.71	46.004
457.94	46.633
458.17	45.737
458.40	46.724
458.63	44.257
458.86	45.505
459.09	45.825
459.32	46.493
459.55	46.466
459.78	45.941
460.01	46.326
460.24	45.281
460.47	46.159
460.70	45.622
460.93	45.109
461.16	47.153
461.39	47.523
461.62	45.091
461.85	45.657
462.08	45.342
462.31	46.273
462.54	45.847
462.77	45.827
463.00	45.058
463.22	46.037
463.45	44.915
463.68	45.074
463.91	44.575
464.14	44.944
464.37	46.056
464.60	45.113
464.83	46.391
465.06	45.771
465.29	45.138
465.52	46.687
465.75	45.313
465.98	45.494
466.21	45.477
466.44	46.192
466.67	44.803
466.90	44.391
467.12	45.491
467.35	45.862
467.58	44.622
467.81	45.270
468.04	45.150
468.27	44.595
468.50	44.537
468.73	44.784
468.96	45.320
469.19	45.023
469.42	45.312
469.65	44.527
469.87	44.969
470.10	45.447
470.33	44.778
470.56	45.581
470.79	44.488
471.02	44.692
471.25	44.799
471.48	44.966
471.71	44.566
471.94	45.691
472.17	45.276
472.39	44.968
472.62	45.469
472.85	44.904
473.08	44.338
473.31	44.213
473.54	44.540
473.77	44.376
474.00	44.401
474.23	44.008
474.45	44.785
474.68	45.103
474.91	44.908
475.14	44.396
475.37	44.685
475.60	45.172
475.83	44.856
476.06	44.821
476.28	44.405
476.51	44.953
476.74	44.858
476.97	43.776
477.20	44.781
477.43	44.873
477.66	44.228
477.88	44.415
478.11	44.716
478.34	44.396
478.57	45.005
478.80	44.380
479.03	44.401
479.26	44.216
479.48	43.761
479.71	44.424
479.94	44.515
480.17	44.282
480.40	44.633
480.63	44.001
480.86	44.703
481.08	45.235
481.31	44.445
481.54	44.871
481.77	44.927
482.00	44.567
482.23	44.414
482.45	44.527
482.68	44.147
482.91	44.137
483.14	44.045
483.37	44.668
483.60	44.379
483.82	44.382
484.05	44.042
484.28	44.110
484.51	44.246
484.74	44.505
484.96	44.121
485.19	44.352
485.42	44.245
485.65	44.484
485.88	44.159
486.10	44.142
486.33	44.100
486.56	44.058
486.79	44.080
487.02	43.967
487.25	44.280
487.47	44.320
487.70	44.020
487.93	43.967
488.16	43.815
488.39	44.131
488.61	43.907
488.84	43.670
489.07	44.043
489.30	43.718
489.52	44.089
489.75	44.193
489.98	44.210
490.21	44.153
490.44	44.450
490.66	43.886
490.89	44.036
491.12	43.923
491.35	43.710
491.57	43.541
491.80	43.569
492.03	43.718
492.26	43.608
492.49	43.937
492.71	43.545
492.94	43.811
493.17	43.673
493.40	43.495
493.62	44.202
493.85	43.766
494.08	43.498
494.31	43.746
494.53	43.277
494.76	43.418
494.99	43.468
495.22	43.415
495.44	43.747
495.67	43.828
495.90	43.499
496.13	43.558
496.35	43.628
496.58	43.981
496.81	43.557
497.04	43.526
497.26	43.578
497.49	43.486
497.72	43.405
497.95	43.576
498.17	43.736
498.40	43.047
498.63	43.841
498.85	43.480
499.08	43.552
499.31	43.512
499.54	43.489
499.76	43.519
499.99	43.017
500.22	43.236
500.44	43.079
500.67	43.508
500.90	43.332
501.13	43.372
501.35	43.088
501.58	43.398
501.81	43.545
502.03	43.278
502.26	43.282
502.49	43.486
502.72	43.066
502.94	43.285
503.17	43.459
503.40	43.653
503.62	43.812
503.85	43.974
504.08	44.100
504.30	43.991
504.53	44.081
504.76	44.714
504.98	44.474
505.21	44.547
505.44	44.589
505.67	44.825
505.89	45.190
506.12	45.569
506.35	45.913
506.57	46.312
506.80	46.845
507.03	46.952
507.25	47.958
507.48	47.931
507.71	48.910
507.93	48.989
508.16	49.866
508.39	50.365
508.61	51.440
508.84	51.673
509.07	52.729
509.29	53.701
509.52	55.127
509.75	56.126
509.97	56.885
510.20	58.181
510.43	59.003
510.65	59.967
510.88	61.107
511.10	61.740
511.33	62.660
511.56	63.679
511.78	65.008
512.01	65.596
512.24	66.501
512.46	67.007
512.69	67.541
512.92	68.486
513.14	68.763
513.37	70.082
513.59	70.202
513.82	70.472
514.05	70.972
514.27	71.448
514.50	71.829
514.73	72.130
514.95	72.879
515.18	72.981
515.40	73.576
515.63	74.017
515.86	74.058
516.08	74.342
516.31	74.954
516.54	75.135
516.76	75.606
516.99	75.957
517.21	75.786
517.44	75.719
517.67	76.652
517.89	76.826
518.12	77.132
518.34	77.395
518.57	77.801
518.80	77.608
519.02	77.432
519.25	77.555
519.47	77.039
519.70	77.637
519.93	77.188
520.15	76.947
520.38	76.939
520.60	76.475
520.83	76.927
521.05	76.440
521.28	76.711
521.51	76.680
521.73	76.762
521.96	76.699
522.18	76.671
522.41	76.107
522.63	76.192
522.86	76.599
523.09	76.539
523.31	76.908
523.54	77.236
523.76	76.691
523.99	77.350
524.21	77.413
524.44	77.097
524.67	77.353
524.89	77.370
525.12	77.607
525.34	77.443
525.57	77.787
525.79	77.896
526.02	77.745
526.24	77.885
526.47	77.991
526.69	77.829
526.92	77.954
527.15	78.303
527.37	77.975
527.60	78.070
527.82	78.258
528.05	78.677
528.27	78.732
528.50	78.613
528.72	78.594
528.95	78.111
529.17	77.859
529.40	78.036
529.62	77.968
529.85	78.827
530.07	78.647
530.30	77.874
530.52	77.819
530.75	77.905
530.98	77.909
531.20	77.752
531.43	77.779
531.65	77.838
531.88	77.340
532.10	77.375
532.33	77.113
532.55	77.382
532.78	77.128
533.00	77.379
533.23	76.952
533.45	76.864
533.68	76.975
533.90	76.729
534.13	77.070
534.35	77.185
534.58	76.943
534.80	77.030
535.03	76.790
535.25	77.213
535.47	77.465
535.70	77.560
535.92	77.210
536.15	77.701
536.37	77.782
536.60	77.492
536.82	77.744
537.05	77.647
537.27	78.188
537.50	77.620
537.72	77.841
537.95	78.058
538.17	78.113
538.40	78.235
538.62	78.672
538.85	78.154
539.07	78.519
539.29	78.332
539.52	78.482
539.74	78.592
539.97	78.677
540.19	78.482
540.42	78.754
540.64	78.596
540.87	78.298
541.09	78.430
541.32	78.240
541.54	78.662
541.76	78.679
541.99	77.985
542.21	78.856
542.44	78.628
542.66	78.135
542.89	78.148
543.11	78.180
543.33	78.296
543.56	77.711
543.78	77.504
544.01	77.746
544.23	77.577
544.46	77.886
544.68	77.833
544.90	77.706
545.13	77.679
545.35	77.575
545.58	77.589
545.80	77.333
546.03	77.245
546.25	77.035
546.47	77.208
546.70	77.291
546.92	77.079
547.15	77.142
547.37	77.301
547.59	76.782
547.82	77.121
548.04	77.149
548.27	77.385
548.49	77.320
548.71	77.173
548.94	76.980
549.16	77.341
549.39	77.089
549.61	76.984
549.83	77.135
550.06	77.078
550.28	77.353
550.50	77.182
550.73	77.573
550.95	77.678
551.18	77.825
551.40	78.050
551.62	78.072
551.85	78.081
552.07	78.204
552.29	77.726
552.52	78.068
552.74	78.103
552.97	78.775
553.19	78.383
553.41	78.685
553.64	78.756
553.86	79.037
554.08	78.396
554.31	78.693
554.53	78.461
554.75	79.141
554.98	79.021
555.20	78.495
555.42	79.002
555.65	78.704
555.87	79.485
556.10	78.816
556.32	79.121
556.54	78.680
556.77	79.281
556.99	79.295
557.21	78.704
557.44	79.174
557.66	78.414
557.88	78.705
558.11	78.900
558.33	79.082
558.55	78.896
558.78	78.829
559.00	78.722
559.22	78.804
559.44	78.858
559.67	79.110
559.89	79.208
560.11	78.973
560.34	78.471
560.56	78.525
560.78	78.155
561.01	78.213
561.23	78.144
561.45	78.113
561.68	78.067
561.90	77.806
562.12	77.845
562.35	78.035
562.57	77.808
562.79	78.418
563.01	77.878
563.24	77.705
563.46	78.029
563.68	77.927
563.91	77.975
564.13	77.410
564.35	78.065
564.57	77.937
564.80	78.452
565.02	78.206
565.24	78.387
565.47	78.662
565.69	78.780
565.91	78.668
566.13	78.537
566.36	78.300
566.58	78.150
566.80	78.104
567.02	78.526
567.25	78.294
567.47	78.290
567.69	78.399
567.92	77.943
568.14	78.039
568.36	78.275
568.58	78.119
568.81	77.623
569.03	78.227
569.25	78.306
569.47	78.173
569.70	78.457
569.92	78.496
570.14	78.589
570.36	78.376
570.59	78.738
570.81	79.007
571.03	78.898
571.25	79.086
571.47	79.011
571.70	79.372
571.92	79.385
572.14	79.151
572.36	78.823
572.59	78.886
572.81	79.188
573.03	79.754
573.25	79.119
573.48	79.499
573.70	79.566
573.92	79.525
574.14	79.866
574.36	79.560
574.59	79.609
574.81	79.878
575.03	79.671
575.25	79.454
575.47	79.136
575.70	78.886
575.92	78.950
576.14	79.029
576.36	79.257
576.59	79.490
576.81	79.208
577.03	79.222
577.25	79.613
577.47	79.620
577.69	79.970
577.92	79.767
578.14	79.700
578.36	79.708
578.58	79.774
578.80	79.835
579.03	80.028
579.25	79.566
579.47	79.440
579.69	79.096
579.91	79.161
580.14	79.401
580.36	79.671
580.58	79.476
580.80	80.118
581.02	79.486
581.24	79.167
581.47	79.945
581.69	79.889
581.91	79.886
582.13	79.627
582.35	79.331
582.57	79.519
582.79	79.691
583.02	79.463
583.24	79.699
583.46	79.400
583.68	79.231
583.90	79.603
584.12	79.578
584.35	79.127
584.57	78.699
584.79	78.779
585.01	78.994
585.23	79.322
585.45	79.259
585.67	79.546
585.90	79.763
586.12	79.652
586.34	79.378
586.56	79.261
586.78	79.351
587.00	78.991
587.22	78.922
587.44	78.374
587.67	79.001
587.89	79.016
588.11	79.111
588.33	79.069
588.55	79.416
588.77	79.752
588.99	79.179
589.21	79.084
589.43	79.470
589.66	79.124
589.88	79.111
590.10	79.173
590.32	79.220
590.54	79.473
590.76	79.379
590.98	79.644
591.20	79.676
591.42	79.294
591.64	79.545
591.87	79.954
592.09	79.870
592.31	80.055
592.53	79.981
592.75	79.839
592.97	79.696
593.19	79.440
593.41	79.746
593.63	79.985
593.85	79.986
594.07	79.739
594.29	79.941
594.52	79.752
594.74	79.601
594.96	79.575
595.18	80.047
595.40	80.261
595.62	80.209
595.84	79.961
596.06	80.436
596.28	80.227
596.50	79.942
596.72	79.569
596.94	79.790
597.16	80.243
597.38	80.284
597.60	80.502
597.82	80.297
598.05	80.219
598.27	80.112
598.49	80.278
598.71	79.893
598.93	80.007
599.15	79.930
599.37	80.104
599.59	80.098
599.81	79.884
600.03	79.989
600.25	80.102
600.47	79.845
600.69	80.380
600.91	80.313
601.13	80.175
601.35	80.578
601.57	80.063
601.79	80.052
602.01	80.309
602.23	80.289
602.45	79.987
602.67	80.082
602.89	80.051
603.11	80.189
603.33	80.267
603.55	80.252
603.77	80.039
603.99	80.204
604.21	80.288
604.43	80.303
604.65	80.331
604.87	79.758
605.09	79.632
605.31	80.013
605.53	79.642
605.75	79.549
605.97	79.796
606.19	79.410
606.41	79.411
606.63	79.548
606.85	79.762
607.07	79.770
607.29	79.989
607.51	79.924
607.73	79.701
607.95	79.606
608.17	79.289
608.39	79.297
608.61	79.606
608.83	79.565
609.05	79.841
609.27	79.690
609.49	79.777
609.71	79.677
609.93	80.249
610.15	80.069
610.37	80.193
610.59	79.892
610.81	79.346
611.03	79.096
611.24	79.142
611.46	79.520
611.68	79.319
611.90	79.849
612.12	79.923
612.34	79.998
612.56	80.053
612.78	80.044
613.00	80.183
613.22	80.048
613.44	80.146
613.66	80.109
613.88	79.476
614.10	79.519
614.32	79.490
614.54	79.951
614.75	79.779
614.97	79.962
615.19	80.303
615.41	80.360
615.63	80.224
615.85	80.635
616.07	80.080
616.29	80.564
616.51	79.983
616.73	80.055
616.95	79.814
617.17	79.802
617.38	79.945
617.60	79.963
617.82	79.952
618.04	79.971
618.26	80.187
618.48	79.748
618.70	79.769
618.92	80.056
619.14	80.278
619.36	80.054
619.57	79.777
619.79	79.850
620.01	80.418
620.23	80.109
620.45	79.441
620.67	79.733
620.89	79.967
621.11	79.675
621.33	79.830
621.54	80.414
621.76	80.450
621.98	80.214
622.20	80.287
622.42	80.569
622.64	80.503
622.86	80.467
623.07	80.165
623.29	79.744
623.51	79.908
623.73	80.218
623.95	80.407
624.17	80.500
624.39	80.265
624.60	80.209
624.82	80.504
625.04	80.091
625.26	80.089
625.48	80.182
625.70	80.068
625.92	80.046
626.13	80.218
626.35	80.174
626.57	79.840
626.79	79.665
627.01	80.383
627.23	80.237
627.44	79.834
627.66	79.901
627.88	79.904
628.10	79.912
628.32	80.088
628.54	79.935
628.75	80.119
628.97	79.708
629.19	79.711
629.41	79.945
629.63	80.303
629.84	80.274
630.06	80.332
630.28	80.013
630.50	80.104
630.72	80.085
630.94	80.726
631.15	79.835
631.37	79.938
631.59	80.565
631.81	80.721
632.03	80.339
632.24	80.413
632.46	80.680
632.68	80.806
632.90	80.394
633.11	80.089
633.33	80.453
633.55	80.401
633.77	80.473
633.99	80.308
634.20	80.125
634.42	79.811
634.64	80.162
634.86	79.950
635.08	80.069
635.29	80.001
635.51	79.839
635.73	79.852
635.95	79.478
636.16	79.230
636.38	79.466
636.60	80.093
636.82	80.336
637.03	79.904
637.25	79.497
637.47	79.930
637.69	80.201
637.90	79.791
638.12	79.717
638.34	79.927
638.56	79.963
638.77	80.203
638.99	79.675
639.21	80.400
639.43	80.800
639.64	80.891
639.86	80.745
640.08	80.655
640.30	80.854
640.51	80.500
640.73	80.334
640.95	80.740
641.17	80.706
641.38	80.359
641.60	80.107
641.82	80.424
642.03	80.137
642.25	80.003
642.47	80.331
642.69	80.361
642.90	80.415
643.12	80.482
643.34	80.480
643.55	80.456
643.77	80.637
643.99	81.136
644.21	81.158
644.42	81.083
644.64	81.193
644.86	81.140
645.07	81.161
645.29	81.158
645.51	81.321
645.73	81.175
645.94	81.110
646.16	81.220
646.38	81.012
646.59	80.828
646.81	81.157
647.03	81.257
647.24	80.651
647.46	80.671
647.68	80.151
647.89	79.857
648.11	80.291
648.33	80.393
648.54	81.031
648.76	80.805
648.98	80.727
649.19	80.698
649.41	80.677
649.63	80.750
649.84	80.729
650.06	81.030
650.28	80.960
650.49	80.856
650.71	80.767
650.93	80.693
651.14	80.897
651.36	80.467
651.58	80.731
651.79	81.409
652.01	80.947
652.23	81.426
652.44	81.234
652.66	81.339
652.88	81.128
653.09	80.829
653.31	80.983
653.52	81.186
653.74	81.106
653.96	80.991
654.17	81.657
654.39	81.710
654.61	81.342
654.82	81.516
655.04	81.562
655.25	81.591
655.47	81.700
655.69	81.446
655.90	81.489
656.12	81.435
656.34	81.307
656.55	80.708
656.77	80.869
656.98	80.703
657.20	80.776
657.42	80.595
657.63	80.952
657.85	80.999
658.06	80.564
658.28	80.517
658.50	80.321
658.71	80.763
658.93	80.960
659.14	81.142
659.36	81.399
659.58	81.219
659.79	81.328
660.01	81.022
660.22	81.519
660.44	81.250
660.65	80.916
660.87	80.976
661.09	81.077
661.30	81.451
661.52	81.520
661.73	81.445
661.95	81.126
662.16	81.061
662.38	81.188
662.60	81.479
662.81	81.600
663.03	81.443
663.24	81.180
663.46	80.928
663.67	81.258
663.89	81.568
664.11	81.489
664.32	81.584
