OOIBase32 Version 2.0.1.4 Data File
++++++++++++++++++++++++++++++++++++
Date: 11-03-2025, 09:56:15
User: Valued Ocean Optics Customer
Spectrometer Serial Number: HR2B216
Spectrometer Channel: Master
Integration Time (msec): 5
Spectra Averaged: 80
Boxcar Smoothing: 0
Correct for Electrical Dark: Disabled
Time Normalized: Disabled
Dual-beam Reference: Disabled
Reference Channel: Master
Temperature: Not acquired
Spectrometer Type: S2000
ADC Type: HR2000
Number of Pixels in File: 2048
Graph Title: 
>>>>>Begin Spectral Data<<<<<
373.12	0.000
373.35	-1200.051
373.59	-987.435
373.82	-331.816
374.06	-428.564
374.29	-142.858
374.53	-54.901
374.76	-523.081
375.00	-113.887
375.23	-18.965
375.47	-52.439
375.70	-39.655
375.94	-58.824
376.17	-82.052
376.40	-10002.442
376.64	-119.358
376.87	-116.072
377.11	-1175.111
377.34	-35.483
377.58	-393.759
377.81	-478.568
378.05	-285.722
378.28	-180.949
378.52	-88.093
378.75	1039.990
378.99	-176.001
379.22	-88.890
379.45	-7.692
379.69	-29.412
379.92	-12.329
380.16	-31.074
380.39	-6.154
380.63	5.394
380.86	-14.741
381.10	-39.075
381.33	-17.210
381.56	-14.925
381.80	3.334
382.03	-34.694
382.27	-24.731
382.50	-15.164
382.74	-28.436
382.97	-0.351
383.21	-2.961
383.44	-7.722
383.67	-28.813
383.91	-7.326
384.14	-16.236
384.38	8.091
384.61	-20.300
384.84	-11.032
385.08	-12.782
385.31	-25.086
385.55	-3.526
385.78	-20.463
386.02	-40.400
386.25	-14.803
386.48	-8.523
386.72	-11.784
386.95	-14.759
387.19	-26.280
387.42	-23.053
387.65	-45.791
387.89	-5.435
388.12	-4.938
388.36	-2.260
388.59	-17.325
388.82	-14.030
389.06	-18.806
389.29	-30.769
389.53	-5.085
389.76	-12.356
389.99	-12.568
390.23	-1.643
390.46	-8.629
390.70	6.010
390.93	-18.436
391.16	-30.623
391.40	-24.000
391.63	-8.192
391.87	-21.538
392.10	-23.544
392.33	-7.863
392.57	-4.266
392.80	-8.076
393.03	-0.218
393.27	-8.577
393.50	-8.823
393.74	-14.770
393.97	-11.013
394.20	-15.638
394.44	-14.955
394.67	-15.230
394.90	-11.088
395.14	6.852
395.37	2.394
395.60	-12.644
395.84	-3.750
396.07	-0.373
396.31	-7.443
396.54	1.349
396.77	-8.829
397.01	0.824
397.24	0.696
397.47	-4.663
397.71	2.288
397.94	3.103
398.17	-3.518
398.41	-7.299
398.64	-8.302
398.87	-7.794
399.11	-8.958
399.34	-8.087
399.57	-2.556
399.81	-7.932
400.04	0.753
400.27	-13.205
400.51	-10.541
400.74	-2.374
400.97	-4.391
401.21	1.318
401.44	3.075
401.67	-8.702
401.91	-6.184
402.14	-8.345
402.37	-11.516
402.61	-6.907
402.84	1.469
403.07	-7.555
403.31	-6.684
403.54	-4.286
403.77	-6.012
404.00	-6.582
404.24	-6.538
404.47	-2.810
404.70	2.722
404.94	-6.478
405.17	-7.512
405.40	-7.240
405.64	-9.751
405.87	-0.637
406.10	-3.746
406.34	-5.378
406.57	-1.522
406.80	-3.348
407.03	-8.677
407.27	-3.448
407.50	0.531
407.73	5.545
407.97	-1.556
408.20	-0.199
408.43	1.277
408.66	-1.116
408.90	-3.016
409.13	1.078
409.36	-7.897
409.60	-0.858
409.83	-1.251
410.06	1.396
410.29	-1.472
410.53	-0.522
410.76	-4.025
410.99	-1.806
411.22	-3.442
411.46	-2.422
411.69	1.563
411.92	-3.868
412.16	-2.463
412.39	2.062
412.62	4.047
412.85	0.900
413.09	-3.487
413.32	-4.622
413.55	-1.208
413.78	-1.059
414.02	-5.306
414.25	-7.576
414.48	-5.306
414.71	0.218
414.95	-4.096
415.18	-0.340
415.41	1.185
415.64	-1.423
415.88	-2.305
416.11	-1.517
416.34	-4.042
416.57	-6.927
416.80	-2.217
417.04	-0.391
417.27	0.618
417.50	-2.681
417.73	-1.562
417.97	-1.906
418.20	-2.092
418.43	-2.241
418.66	-4.286
418.90	-0.497
419.13	-2.584
419.36	-2.236
419.59	-1.653
419.82	-1.111
420.06	1.125
420.29	-1.710
420.52	-3.358
420.75	-1.013
420.98	-2.162
421.22	-1.360
421.45	-3.363
421.68	-1.345
421.91	-1.485
422.15	0.917
422.38	-0.433
422.61	-1.438
422.84	-0.172
423.07	1.085
423.31	-0.512
423.54	1.488
423.77	-1.506
424.00	-1.949
424.23	-0.723
424.46	-1.653
424.70	0.607
424.93	2.743
425.16	-1.875
425.39	0.577
425.62	-1.276
425.86	-3.115
426.09	-1.337
426.32	-0.836
426.55	-1.749
426.78	-1.860
427.01	-1.515
427.25	1.206
427.48	-0.288
427.71	-0.272
427.94	-0.109
428.17	0.275
428.40	-0.794
428.64	-0.930
428.87	-1.278
429.10	1.348
429.33	-1.709
429.56	-1.724
429.79	-0.511
430.03	-1.849
430.26	0.000
430.49	-0.612
430.72	-0.742
430.95	-2.260
431.18	-2.404
431.42	-1.999
431.65	-0.328
431.88	-0.375
432.11	-0.088
432.34	0.333
432.57	-0.793
432.80	-1.678
433.04	-0.502
433.27	1.255
433.50	0.399
433.73	0.000
433.96	-0.431
434.19	-0.952
434.42	-1.173
434.65	0.547
434.89	-0.027
435.12	-0.671
435.35	0.253
435.58	-0.176
435.81	-1.314
436.04	0.376
436.27	-0.095
436.50	0.489
436.74	-0.283
436.97	-0.289
437.20	-1.583
437.43	-0.212
437.66	-0.568
437.89	-0.277
438.12	-0.541
438.35	-0.710
438.58	0.089
438.82	0.086
439.05	-0.691
439.28	-0.408
439.51	0.185
439.74	-0.021
439.97	0.269
440.20	-0.464
440.43	0.542
440.66	-0.365
440.89	-0.270
441.12	0.246
441.36	-0.261
441.59	-0.945
441.82	-0.734
442.05	-0.971
442.28	-0.839
442.51	0.128
442.74	-0.625
442.97	0.850
443.20	0.091
443.43	-0.123
443.66	0.624
443.89	0.129
444.13	0.188
444.36	-1.031
444.59	-0.341
444.82	-0.474
445.05	-0.434
445.28	0.185
445.51	0.104
445.74	-0.220
445.97	0.000
446.20	-0.640
446.43	-0.454
446.66	0.074
446.89	-0.137
447.12	-0.679
447.35	-0.723
447.58	0.110
447.81	0.164
448.05	-0.156
448.28	0.549
448.51	0.406
448.74	-0.099
448.97	0.042
449.20	-0.820
449.43	-0.870
449.66	-0.389
449.89	0.357
450.12	-0.548
450.35	-0.418
450.58	-0.334
450.81	0.691
451.04	-0.387
451.27	-0.517
451.50	-0.838
451.73	-0.416
451.96	0.000
452.19	-0.697
452.42	-0.236
452.65	0.260
452.88	-0.435
453.11	0.000
453.34	-0.264
453.57	-0.291
453.80	-0.437
454.03	-0.268
454.26	-0.308
454.49	-0.445
454.72	-0.240
454.95	-0.311
455.18	0.324
455.41	-0.159
455.64	-0.154
455.87	-0.022
456.10	0.000
456.33	0.164
456.56	-0.292
456.79	0.082
457.02	-0.711
457.25	-0.011
457.48	-0.108
457.71	-0.100
457.94	-0.153
458.17	0.156
458.40	-0.100
458.63	0.120
458.86	0.182
459.09	0.114
459.32	0.107
459.55	-0.291
459.78	-0.056
460.01	0.142
460.24	0.215
460.47	0.202
460.70	-0.394
460.93	-0.391
461.16	-0.146
461.39	-0.682
461.62	-0.715
461.85	-0.592
462.08	0.000
462.31	-0.153
462.54	-0.370
462.77	-0.299
463.00	-0.405
463.22	-0.364
463.45	-0.270
463.68	0.096
463.91	-0.094
464.14	0.039
464.37	-0.132
464.60	0.069
464.83	0.223
465.06	-0.160
465.29	0.103
465.52	-0.472
465.75	-0.074
465.98	-0.029
466.21	-0.415
466.44	-0.341
466.67	0.072
466.90	-0.149
467.12	0.075
467.35	-0.325
467.58	-0.320
467.81	0.066
468.04	-0.106
468.27	0.406
468.50	-0.064
468.73	-0.006
468.96	0.297
469.19	-0.072
469.42	-0.439
469.65	-0.368
469.87	-0.066
470.10	0.018
470.33	-0.221
470.56	-0.335
470.79	-0.382
471.02	-0.068
471.25	-0.060
471.48	-0.145
471.71	0.058
471.94	-0.166
472.17	-0.294
472.39	-0.082
472.62	-0.087
472.85	0.189
473.08	-0.106
473.31	-0.225
473.54	-0.049
473.77	0.005
474.00	0.093
474.23	-0.253
474.45	-0.235
474.68	-0.042
474.91	-0.097
475.14	-0.130
475.37	-0.228
475.60	-0.009
475.83	-0.160
476.06	-0.389
476.28	0.132
476.51	-0.130
476.74	-0.113
476.97	-0.004
477.20	-0.152
477.43	0.020
477.66	-0.093
477.88	-0.265
478.11	-0.027
478.34	-0.174
478.57	-0.030
478.80	-0.138
479.03	-0.226
479.26	-0.290
479.48	0.070
479.71	-0.157
479.94	-0.126
480.17	-0.057
480.40	-0.145
480.63	-0.062
480.86	-0.185
481.08	-0.166
481.31	0.017
481.54	-0.174
481.77	-0.132
482.00	-0.146
482.23	-0.334
482.45	-0.123
482.68	-0.093
482.91	-0.125
483.14	-0.092
483.37	-0.075
483.60	-0.031
483.82	-0.214
484.05	-0.070
484.28	-0.030
484.51	-0.152
484.74	-0.152
484.96	-0.080
485.19	0.041
485.42	-0.145
485.65	-0.152
485.88	-0.057
486.10	-0.110
486.33	-0.106
486.56	0.061
486.79	-0.100
487.02	-0.076
487.25	-0.152
487.47	-0.104
487.70	0.000
487.93	-0.027
488.16	-0.042
488.39	-0.161
488.61	-0.106
488.84	-0.108
489.07	0.028
489.30	0.025
489.52	-0.102
489.75	-0.059
489.98	-0.149
490.21	0.012
490.44	-0.078
490.66	-0.203
490.89	-0.176
491.12	-0.109
491.35	-0.052
491.57	0.012
491.80	-0.089
492.03	-0.125
492.26	-0.009
492.49	-0.086
492.71	0.025
492.94	-0.011
493.17	-0.071
493.40	-0.106
493.62	-0.033
493.85	-0.054
494.08	0.052
494.31	-0.094
494.53	-0.133
494.76	-0.049
494.99	0.013
495.22	-0.148
495.44	0.027
495.67	-0.049
495.90	0.085
496.13	0.016
496.35	-0.060
496.58	0.030
496.81	-0.125
497.04	-0.114
497.26	-0.091
497.49	-0.024
497.72	-0.072
497.95	0.031
498.17	-0.029
498.40	-0.008
498.63	0.078
498.85	-0.068
499.08	-0.023
499.31	-0.054
499.54	-0.022
499.76	-0.123
499.99	-0.027
500.22	-0.049
500.44	-0.124
500.67	-0.103
500.90	0.055
501.13	-0.083
501.35	-0.060
501.58	0.004
501.81	0.000
502.03	-0.031
502.26	-0.064
502.49	-0.051
502.72	-0.052
502.94	0.012
503.17	0.007
503.40	-0.008
503.62	-0.047
503.85	-0.045
504.08	-0.056
504.30	0.039
504.53	-0.077
504.76	-0.010
504.98	-0.005
505.21	-0.080
505.44	-0.068
505.67	0.093
505.89	-0.035
506.12	-0.028
506.35	-0.017
506.57	0.023
506.80	-0.022
507.03	-0.068
507.25	-0.028
507.48	-0.093
507.71	-0.023
507.93	-0.063
508.16	0.013
508.39	0.068
508.61	0.004
508.84	-0.015
509.07	-0.038
509.29	0.004
509.52	-0.079
509.75	-0.083
509.97	-0.044
510.20	-0.029
510.43	-0.014
510.65	0.019
510.88	-0.020
511.10	0.034
511.33	0.028
511.56	-0.088
511.78	0.046
512.01	-0.016
512.24	0.007
512.46	0.008
512.69	-0.008
512.92	-0.064
513.14	-0.065
513.37	-0.101
513.59	-0.058
513.82	0.030
514.05	-0.028
514.27	-0.087
514.50	-0.092
514.73	-0.084
514.95	-0.012
515.18	0.012
515.40	0.028
515.63	0.000
515.86	-0.042
516.08	-0.082
516.31	-0.042
516.54	0.055
516.76	-0.015
516.99	0.083
517.21	0.005
517.44	0.020
517.67	-0.005
517.89	-0.020
518.12	0.017
518.34	-0.074
518.57	-0.072
518.80	-0.062
519.02	-0.043
519.25	-0.005
519.47	-0.004
519.70	0.010
519.93	0.044
520.15	0.024
520.38	0.053
520.60	0.077
520.83	-0.016
521.05	-0.005
521.28	-0.013
521.51	-0.056
521.73	0.037
521.96	0.014
522.18	0.000
522.41	0.097
522.63	-0.030
522.86	-0.075
523.09	-0.027
523.31	0.054
523.54	-0.008
523.76	-0.015
523.99	0.028
524.21	0.024
524.44	0.018
524.67	-0.016
524.89	-0.074
525.12	0.000
525.34	-0.010
525.57	-0.036
525.79	0.010
526.02	0.002
526.24	-0.014
526.47	0.039
526.69	-0.040
526.92	-0.029
527.15	0.039
527.37	-0.010
527.60	-0.040
527.82	0.011
528.05	-0.016
528.27	0.015
528.50	-0.041
528.72	0.024
528.95	-0.016
529.17	-0.024
529.40	-0.040
529.62	0.024
529.85	-0.052
530.07	-0.007
530.30	-0.007
530.52	-0.025
530.75	-0.074
530.98	0.018
531.20	-0.008
531.43	-0.066
531.65	0.023
531.88	0.004
532.10	0.017
532.33	0.016
532.55	0.041
532.78	0.027
533.00	-0.023
533.23	-0.061
533.45	0.026
533.68	0.044
533.90	0.026
534.13	-0.050
534.35	0.007
534.58	0.009
534.80	-0.012
535.03	0.009
535.25	-0.010
535.47	-0.016
535.70	-0.019
535.92	-0.013
536.15	-0.045
536.37	-0.032
536.60	-0.016
536.82	0.025
537.05	0.012
537.27	-0.038
537.50	-0.043
537.72	-0.033
537.95	0.012
538.17	0.022
538.40	0.015
538.62	-0.019
538.85	0.014
539.07	0.005
539.29	0.042
539.52	0.063
539.74	-0.006
539.97	0.071
540.19	-0.016
540.42	-0.006
540.64	-0.036
540.87	-0.001
541.09	0.033
541.32	0.036
541.54	0.030
541.76	0.040
541.99	-0.005
542.21	0.014
542.44	0.015
542.66	0.037
542.89	0.033
543.11	0.010
543.33	0.052
543.56	0.015
543.78	-0.036
544.01	0.011
544.23	-0.047
544.46	-0.010
544.68	0.045
544.90	0.023
545.13	-0.009
545.35	0.020
545.58	0.005
545.80	0.031
546.03	0.039
546.25	-0.014
546.47	-0.026
546.70	0.012
546.92	0.009
547.15	0.003
547.37	0.027
547.59	0.045
547.82	0.011
548.04	0.011
548.27	-0.035
548.49	0.037
548.71	0.010
548.94	0.023
549.16	0.013
549.39	0.033
549.61	0.015
549.83	-0.005
550.06	0.021
550.28	0.005
550.50	0.040
550.73	0.055
550.95	0.037
551.18	0.000
551.40	-0.014
551.62	-0.001
551.85	0.007
552.07	0.006
552.29	0.032
552.52	0.032
552.74	-0.006
552.97	0.026
553.19	-0.006
553.41	0.029
553.64	0.038
553.86	0.026
554.08	0.030
554.31	0.004
554.53	-0.009
554.75	-0.004
554.98	0.005
555.20	0.030
555.42	0.027
555.65	0.026
555.87	-0.020
556.10	0.050
556.32	0.016
556.54	0.017
556.77	0.043
556.99	-0.010
557.21	-0.005
557.44	0.014
557.66	-0.005
557.88	0.059
558.11	0.038
558.33	0.057
558.55	0.009
558.78	0.025
559.00	0.007
559.22	0.024
559.44	0.007
559.67	0.033
559.89	0.075
560.11	0.037
560.34	0.015
560.56	0.069
560.78	0.022
561.01	0.026
561.23	0.037
561.45	0.018
561.68	-0.013
561.90	0.041
562.12	0.018
562.35	0.020
562.57	0.038
562.79	0.021
563.01	0.035
563.24	0.036
563.46	0.029
563.68	0.078
563.91	0.041
564.13	0.048
564.35	0.034
564.57	0.027
564.80	0.015
565.02	-0.001
565.24	0.004
565.47	0.047
565.69	0.020
565.91	0.023
566.13	0.061
566.36	0.047
566.58	0.023
566.80	0.029
567.02	0.055
567.25	0.056
567.47	0.033
567.69	0.023
567.92	0.016
568.14	0.058
568.36	0.042
568.58	0.028
568.81	0.035
569.03	0.018
569.25	0.014
569.47	0.045
569.70	0.053
569.92	0.022
570.14	0.037
570.36	0.022
570.59	0.059
570.81	0.052
571.03	0.031
571.25	0.043
571.47	0.033
571.70	0.036
571.92	-0.011
572.14	0.049
572.36	0.061
572.59	0.015
572.81	0.070
573.03	0.046
573.25	0.004
573.48	0.025
573.70	0.029
573.92	0.067
574.14	0.053
574.36	0.022
574.59	0.049
574.81	0.016
575.03	0.011
575.25	0.036
575.47	0.034
575.70	0.051
575.92	0.036
576.14	0.002
576.36	0.052
576.59	0.042
576.81	0.031
577.03	0.041
577.25	0.039
577.47	0.068
577.69	0.039
577.92	0.057
578.14	0.064
578.36	0.042
578.58	0.065
578.80	0.046
579.03	0.056
579.25	0.053
579.47	0.065
579.69	0.052
579.91	0.066
580.14	0.019
580.36	0.069
580.58	0.059
580.80	0.055
581.02	0.039
581.24	0.034
581.47	0.050
581.69	0.059
581.91	0.058
582.13	0.080
582.35	0.060
582.57	0.056
582.79	0.050
583.02	0.070
583.24	0.050
583.46	0.064
583.68	0.047
583.90	0.050
584.12	0.070
584.35	0.073
584.57	0.064
584.79	0.059
585.01	0.065
585.23	0.007
585.45	0.051
585.67	0.057
585.90	0.059
586.12	0.056
586.34	0.070
586.56	0.057
586.78	0.071
587.00	0.058
587.22	0.059
587.44	0.061
587.67	0.079
587.89	0.048
588.11	0.058
588.33	0.071
588.55	0.083
588.77	0.053
588.99	0.074
589.21	0.096
589.43	0.092
589.66	0.085
589.88	0.108
590.10	0.064
590.32	0.064
590.54	0.083
590.76	0.105
590.98	0.055
591.20	0.054
591.42	0.063
591.64	0.055
591.87	0.077
592.09	0.090
592.31	0.098
592.53	0.070
592.75	0.089
592.97	0.094
593.19	0.088
593.41	0.082
593.63	0.069
593.85	0.104
594.07	0.084
594.29	0.083
594.52	0.097
594.74	0.084
594.96	0.078
595.18	0.095
595.40	0.071
595.62	0.112
595.84	0.099
596.06	0.115
596.28	0.109
596.50	0.089
596.72	0.112
596.94	0.121
597.16	0.104
597.38	0.101
597.60	0.103
597.82	0.117
598.05	0.164
598.27	0.131
598.49	0.138
598.71	0.127
598.93	0.147
599.15	0.177
599.37	0.196
599.59	0.192
599.81	0.226
600.03	0.235
600.25	0.250
600.47	0.276
600.69	0.360
600.91	0.384
601.13	0.438
601.35	0.494
601.57	0.591
601.79	0.670
602.01	0.737
602.23	0.851
602.45	1.021
602.67	1.156
602.89	1.344
603.11	1.507
603.33	1.718
603.55	1.984
603.77	2.251
603.99	2.557
604.21	2.821
604.43	3.207
604.65	3.558
604.87	3.923
605.09	4.319
605.31	4.774
605.53	5.246
605.75	5.755
605.97	6.237
606.19	6.861
606.41	7.434
606.63	8.015
606.85	8.648
607.07	9.358
607.29	10.009
607.51	10.744
607.73	11.427
607.95	12.162
608.17	12.902
608.39	13.603
608.61	14.238
608.83	15.054
609.05	15.849
609.27	16.682
609.49	17.441
609.71	18.268
609.93	19.155
610.15	20.037
610.37	20.852
610.59	21.697
610.81	22.517
611.03	23.273
611.24	24.107
611.46	24.989
611.68	25.849
611.90	26.594
612.12	27.304
612.34	28.021
612.56	28.669
612.78	29.431
613.00	30.115
613.22	30.849
613.44	31.470
613.66	32.212
613.88	32.945
614.10	33.699
614.32	34.371
614.54	34.951
614.75	35.652
614.97	36.232
615.19	36.691
615.41	37.246
615.63	37.823
615.85	38.286
616.07	38.780
616.29	39.250
616.51	39.799
616.73	40.511
616.95	41.007
617.17	41.579
617.38	42.041
617.60	42.484
617.82	43.072
618.04	43.662
618.26	44.085
618.48	44.730
618.70	45.377
618.92	45.788
619.14	46.182
619.36	46.426
619.57	46.533
619.79	46.998
620.01	47.530
620.23	47.738
620.45	47.937
620.67	48.183
620.89	48.359
621.11	48.508
621.33	49.028
621.54	49.560
621.76	49.677
621.98	49.775
622.20	50.038
622.42	50.058
622.64	50.463
622.86	50.804
623.07	51.258
623.29	51.803
623.51	51.946
623.73	51.926
623.95	51.774
624.17	51.833
624.39	52.061
624.60	52.172
624.82	52.358
625.04	52.627
625.26	53.067
625.48	53.556
625.70	53.775
625.92	53.874
626.13	53.967
626.35	54.291
626.57	54.479
626.79	54.812
627.01	55.124
627.23	55.443
627.44	55.505
627.66	55.569
627.88	55.633
628.10	55.603
628.32	55.616
628.54	55.610
628.75	55.827
628.97	56.048
629.19	56.612
629.41	56.724
629.63	56.757
629.84	56.904
630.06	56.878
630.28	57.116
630.50	57.319
630.72	57.563
630.94	57.759
631.15	57.837
631.37	57.811
631.59	57.831
631.81	57.858
632.03	57.960
632.24	58.086
632.46	58.068
632.68	58.336
632.90	58.577
633.11	58.903
633.33	59.220
633.55	59.202
633.77	58.996
633.99	59.005
634.20	59.177
634.42	59.429
634.64	59.571
634.86	59.657
635.08	59.761
635.29	59.890
635.51	60.085
635.73	60.116
635.95	60.082
636.16	60.132
636.38	60.281
636.60	60.236
636.82	60.277
637.03	60.337
637.25	60.031
637.47	59.716
637.69	59.807
637.90	59.742
638.12	59.882
638.34	59.995
638.56	60.235
638.77	60.240
638.99	60.324
639.21	60.460
639.43	60.647
639.64	61.068
639.86	61.356
640.08	61.557
640.30	61.641
640.51	61.664
640.73	61.787
640.95	61.824
641.17	62.225
641.38	62.511
641.60	62.577
641.82	62.852
642.03	62.709
642.25	62.502
642.47	62.438
642.69	62.406
642.90	62.230
643.12	62.301
643.34	62.330
643.55	62.772
643.77	63.118
643.99	63.628
644.21	63.825
644.42	63.753
644.64	63.242
644.86	63.042
645.07	63.132
645.29	63.133
645.51	63.326
645.73	63.328
645.94	63.585
646.16	63.535
646.38	63.435
646.59	63.170
646.81	63.301
647.03	63.463
647.24	63.622
647.46	63.571
647.68	63.451
647.89	63.494
648.11	63.748
648.33	64.143
648.54	64.738
648.76	65.016
648.98	65.197
649.19	65.521
649.41	65.506
649.63	65.360
649.84	65.088
650.06	64.950
650.28	64.778
650.49	64.806
650.71	64.962
650.93	65.016
651.14	65.109
651.36	65.170
651.58	65.236
651.79	65.217
652.01	64.956
652.23	65.010
652.44	65.105
652.66	65.474
652.88	65.688
653.09	65.941
653.31	65.796
653.52	65.965
653.74	66.187
653.96	66.455
654.17	66.414
654.39	66.693
654.61	67.186
654.82	67.259
655.04	67.366
655.25	67.190
655.47	66.919
655.69	66.606
655.90	66.653
656.12	66.700
656.34	66.849
656.55	66.971
656.77	66.770
656.98	66.739
657.20	66.802
657.42	67.020
657.63	67.147
657.85	67.260
658.06	67.399
658.28	67.448
658.50	67.362
658.71	67.539
658.93	67.499
659.14	67.630
659.36	67.640
659.58	67.740
659.79	67.679
660.01	67.464
660.22	67.384
660.44	67.367
660.65	67.300
660.87	67.631
661.09	68.120
661.30	68.276
661.52	68.407
661.73	68.428
661.95	68.481
662.16	68.443
662.38	68.221
662.60	68.291
662.81	68.432
663.03	68.562
663.24	68.885
663.46	69.311
663.67	69.596
663.89	69.408
664.11	69.481
664.32	69.538
664.54	69.242
664.75	68.956
664.97	68.988
665.18	69.326
665.40	69.287
665.61	68.938
665.83	68.817
666.04	68.984
666.26	69.250
666.48	69.600
666.69	69.836
666.91	69.976
667.12	70.054
667.34	70.135
667.55	70.048
667.77	69.880
667.98	69.715
668.20	69.913
668.41	70.255
668.63	70.350
668.84	70.505
669.06	70.511
669.27	70.897
669.49	71.026
669.70	70.871
669.92	70.833
670.13	70.570
670.35	70.697
670.56	70.892
