OOIBase32 Version 2.0.1.4 Data File
++++++++++++++++++++++++++++++++++++
Date: 11-03-2025, 10:19:45
User: Valued Ocean Optics Customer
Spectrometer Serial Number: HR2B216
Spectrometer Channel: Master
Integration Time (msec): 5
Spectra Averaged: 80
Boxcar Smoothing: 0
Correct for Electrical Dark: Disabled
Time Normalized: Disabled
Dual-beam Reference: Disabled
Reference Channel: Master
Temperature: Not acquired
Spectrometer Type: S2000
ADC Type: HR2000
Number of Pixels in File: 2048
Graph Title: 
>>>>>Begin Spectral Data<<<<<
373.12	0.000
373.35	193.443
373.59	157.377
373.82	383.340
374.06	363.334
374.29	-1100.015
374.53	460.606
374.76	-449.997
375.00	425.582
375.23	267.443
375.47	214.925
375.70	1018.206
375.94	412.497
376.17	315.153
376.40	711.115
376.64	1312.520
376.87	-500.014
377.11	-675.010
377.34	-2432.933
377.58	220.833
377.81	325.808
378.05	483.999
378.28	294.285
378.52	620.001
378.75	441.384
378.99	403.445
379.22	-7449.558
379.45	-170.149
379.69	-72.042
379.92	-190.907
380.16	-324.487
380.39	-177.421
380.63	-58.824
380.86	-112.245
381.10	-42.106
381.33	-102.678
381.56	-83.089
381.80	-25.175
382.03	-44.379
382.27	-63.865
382.50	-68.852
382.74	-113.208
382.97	-105.263
383.21	-108.162
383.44	-50.326
383.67	-80.357
383.91	-113.000
384.14	-157.334
384.38	-59.028
384.61	-59.649
384.84	-64.815
385.08	-91.177
385.31	-172.415
385.55	-86.259
385.78	-93.163
386.02	-63.483
386.25	-36.123
386.48	-54.144
386.72	-82.000
386.95	-60.309
387.19	-53.165
387.42	-65.069
387.65	-33.766
387.89	-106.666
388.12	-31.841
388.36	-48.718
388.59	-60.846
388.82	-57.143
389.06	-25.397
389.29	-39.806
389.53	-36.170
389.76	-33.483
389.99	-99.325
390.23	-46.119
390.46	-47.346
390.70	-54.217
390.93	-48.846
391.16	-63.492
391.40	-46.753
391.63	-31.419
391.87	-52.852
392.10	-45.783
392.33	-28.283
392.57	-21.203
392.80	-53.557
393.03	-43.145
393.27	-34.324
393.50	-41.581
393.74	-28.136
393.97	-20.110
394.20	-28.165
394.44	-37.898
394.67	-32.653
394.90	-38.730
395.14	-33.663
395.37	-48.921
395.60	-40.063
395.84	-30.790
396.07	-36.261
396.31	-33.994
396.54	-19.946
396.77	-25.662
397.01	-36.240
397.24	-30.105
397.47	-39.153
397.71	-23.395
397.94	-36.828
398.17	-28.642
398.41	-47.787
398.64	-27.822
398.87	-17.402
399.11	-20.268
399.34	-16.524
399.57	-31.250
399.81	-17.793
400.04	-22.779
400.27	-20.645
400.51	-34.402
400.74	-32.787
400.97	-13.189
401.21	-25.586
401.44	-22.351
401.67	-24.159
401.91	-25.047
402.14	-21.881
402.37	-20.489
402.61	-22.283
402.84	-13.321
403.07	-14.485
403.31	-12.106
403.54	-11.920
403.77	-18.324
404.00	-18.512
404.24	-12.313
404.47	-27.069
404.70	-22.091
404.94	-25.000
405.17	-28.405
405.40	-24.346
405.64	-19.660
405.87	-20.701
406.10	-18.829
406.34	-18.694
406.57	-16.615
406.80	-16.063
407.03	-10.632
407.27	-26.875
407.50	-14.900
407.73	-8.840
407.97	-18.806
408.20	-16.716
408.43	-15.651
408.66	-10.610
408.90	-15.681
409.13	-11.735
409.36	-12.737
409.60	-17.639
409.83	-18.414
410.06	-11.779
410.29	-7.430
410.53	-8.496
410.76	-15.594
410.99	-11.932
411.22	-12.229
411.46	-14.952
411.69	-11.525
411.92	-7.987
412.16	-15.402
412.39	-11.022
412.62	-12.750
412.85	-8.084
413.09	-7.533
413.32	-8.515
413.55	-8.543
413.78	-9.981
414.02	-15.249
414.25	-14.839
414.48	-15.512
414.71	-19.087
414.95	-10.612
415.18	-6.630
415.41	-4.643
415.64	-8.137
415.88	-12.593
416.11	-9.628
416.34	-12.259
416.57	-8.559
416.80	-9.791
417.04	-10.687
417.27	-10.644
417.50	-11.885
417.73	-12.977
417.97	-6.359
418.20	-4.868
418.43	-6.067
418.66	-6.636
418.90	-11.433
419.13	-5.444
419.36	-6.942
419.59	-7.018
419.82	-6.513
420.06	-3.995
420.29	-4.919
420.52	-4.118
420.75	-8.562
420.98	-6.555
421.22	-9.194
421.45	-7.013
421.68	-4.726
421.91	-5.420
422.15	-5.071
422.38	-5.356
422.61	-3.618
422.84	-4.350
423.07	-3.316
423.31	-8.618
423.54	-6.025
423.77	-3.454
424.00	-8.477
424.23	-8.155
424.46	-5.139
424.70	-4.296
424.93	-5.240
425.16	-4.998
425.39	-7.642
425.62	-3.272
425.86	-4.024
426.09	-5.821
426.32	-3.797
426.55	-4.687
426.78	-2.415
427.01	-5.041
427.25	-5.470
427.48	-6.753
427.71	-5.989
427.94	-4.370
428.17	-4.918
428.40	-4.543
428.64	-2.984
428.87	-2.690
429.10	-3.269
429.33	-6.092
429.56	-4.422
429.79	-4.627
430.03	-6.444
430.26	-6.210
430.49	-2.936
430.72	-1.668
430.95	-3.723
431.18	-5.506
431.42	-2.850
431.65	-5.461
431.88	-4.318
432.11	-2.915
432.34	-4.361
432.57	-3.248
432.80	-2.822
433.04	-2.314
433.27	-3.158
433.50	-3.758
433.73	-1.904
433.96	-3.636
434.19	-2.766
434.42	-1.987
434.65	-2.407
434.89	-3.681
435.12	-0.340
435.35	-1.433
435.58	-3.237
435.81	-2.857
436.04	-2.646
436.27	-1.093
436.50	-1.838
436.74	-4.496
436.97	-4.408
437.20	-3.982
437.43	-3.613
437.66	-3.832
437.89	-1.993
438.12	-2.072
438.35	-3.116
438.58	-3.860
438.82	-2.500
439.05	-2.105
439.28	-2.628
439.51	-2.918
439.74	-2.352
439.97	-2.875
440.20	-1.665
440.43	-3.235
440.66	-3.491
440.89	-2.860
441.12	-1.768
441.36	-0.807
441.59	-1.610
441.82	-1.591
442.05	-0.689
442.28	-2.745
442.51	-2.655
442.74	-2.155
442.97	-1.098
443.20	-0.852
443.43	-2.176
443.66	-1.327
443.89	-3.214
444.13	-1.569
444.36	-2.355
444.59	-1.512
444.82	-1.339
445.05	-2.013
445.28	-1.494
445.51	-1.954
445.74	-0.266
445.97	-1.197
446.20	-0.821
446.43	-1.569
446.66	-2.309
446.89	-1.472
447.12	-2.573
447.35	-1.193
447.58	-1.530
447.81	-1.180
448.05	-0.908
448.28	-1.949
448.51	-0.842
448.74	-1.234
448.97	-1.222
449.20	-2.131
449.43	-1.437
449.66	-1.752
449.89	-1.019
450.12	-1.099
450.35	-0.739
450.58	-0.759
450.81	-1.678
451.04	-0.826
451.27	-1.581
451.50	-1.299
451.73	-1.308
451.96	-1.260
452.19	-0.989
452.42	-1.740
452.65	-1.232
452.88	-1.351
453.11	-1.512
453.34	-1.005
453.57	-0.829
453.80	-1.182
454.03	-1.096
454.26	-0.328
454.49	-1.092
454.72	-1.622
454.95	-1.412
455.18	-1.123
455.41	-1.103
455.64	-1.274
455.87	-1.435
456.10	-0.753
456.33	-0.662
456.56	-0.930
456.79	-0.826
457.02	-1.743
457.25	-0.904
457.48	-1.198
457.71	-1.082
457.94	-1.550
458.17	-1.082
458.40	-0.761
458.63	-1.769
458.86	-0.975
459.09	-0.909
459.32	-1.078
459.55	-1.383
459.78	-0.715
460.01	-0.944
460.24	-0.466
460.47	-0.294
460.70	-0.604
460.93	-0.828
461.16	-0.837
461.39	-0.641
461.62	-0.594
461.85	-1.201
462.08	-0.496
462.31	-0.670
462.54	-0.760
462.77	-1.419
463.00	-0.831
463.22	-0.368
463.45	-0.942
463.68	-0.735
463.91	-1.038
464.14	-0.512
464.37	-0.695
464.60	-1.529
464.83	-0.741
465.06	-1.064
465.29	-1.027
465.52	-0.861
465.75	-1.019
465.98	-0.613
466.21	-0.188
466.44	-0.506
466.67	-0.630
466.90	-0.636
467.12	-1.016
467.35	-0.534
467.58	-0.728
467.81	-0.618
468.04	-0.326
468.27	-0.871
468.50	-0.788
468.73	-0.647
468.96	-0.714
469.19	-0.534
469.42	-0.094
469.65	-0.903
469.87	-0.683
470.10	-0.997
470.33	-0.496
470.56	-0.404
470.79	-0.649
471.02	-0.599
471.25	-0.556
471.48	-0.620
471.71	-0.276
471.94	-0.538
472.17	-0.214
472.39	-0.785
472.62	-0.470
472.85	-0.418
473.08	-0.530
473.31	-0.786
473.54	-0.298
473.77	-0.483
474.00	-0.308
474.23	0.084
474.45	-0.267
474.68	-0.698
474.91	-0.595
475.14	-0.388
475.37	-0.523
475.60	0.089
475.83	-0.087
476.06	-0.466
476.28	-0.719
476.51	-0.674
476.74	-0.313
476.97	-0.302
477.20	-0.362
477.43	-0.217
477.66	-0.415
477.88	-0.622
478.11	-0.373
478.34	-0.226
478.57	-0.318
478.80	-0.436
479.03	-0.221
479.26	-0.354
479.48	-0.462
479.71	-0.324
479.94	-0.245
480.17	-0.215
480.40	-0.306
480.63	-0.509
480.86	-0.249
481.08	-0.272
481.31	-0.475
481.54	-0.172
481.77	0.167
482.00	-0.157
482.23	-0.220
482.45	-0.452
482.68	-0.229
482.91	0.004
483.14	-0.252
483.37	-0.274
483.60	-0.333
483.82	-0.418
484.05	-0.348
484.28	-0.229
484.51	-0.280
484.74	-0.153
484.96	-0.125
485.19	-0.270
485.42	-0.287
485.65	-0.180
485.88	-0.214
486.10	-0.273
486.33	-0.250
486.56	-0.294
486.79	-0.068
487.02	-0.265
487.25	-0.287
487.47	-0.336
487.70	-0.302
487.93	-0.201
488.16	-0.152
488.39	-0.255
488.61	-0.346
488.84	-0.347
489.07	-0.179
489.30	-0.364
489.52	-0.127
489.75	-0.205
489.98	-0.250
490.21	-0.191
490.44	-0.178
490.66	-0.134
490.89	-0.243
491.12	-0.172
491.35	-0.215
491.57	-0.210
491.80	-0.291
492.03	-0.199
492.26	-0.174
492.49	-0.260
492.71	-0.313
492.94	-0.108
493.17	-0.244
493.40	-0.150
493.62	-0.261
493.85	-0.094
494.08	-0.162
494.31	-0.138
494.53	-0.178
494.76	-0.253
494.99	-0.084
495.22	-0.202
495.44	-0.136
495.67	-0.144
495.90	-0.182
496.13	-0.139
496.35	-0.128
496.58	-0.240
496.81	-0.147
497.04	-0.100
497.26	-0.124
497.49	-0.131
497.72	-0.161
497.95	-0.233
498.17	-0.276
498.40	-0.264
498.63	-0.221
498.85	-0.238
499.08	-0.055
499.31	-0.260
499.54	-0.179
499.76	-0.043
499.99	-0.252
500.22	-0.193
500.44	-0.173
500.67	0.027
500.90	-0.017
501.13	-0.143
501.35	-0.258
501.58	-0.251
501.81	-0.136
502.03	-0.188
502.26	-0.194
502.49	-0.126
502.72	-0.109
502.94	-0.066
503.17	-0.133
503.40	-0.061
503.62	-0.143
503.85	-0.122
504.08	-0.088
504.30	-0.146
504.53	-0.192
504.76	-0.072
504.98	-0.129
505.21	-0.153
505.44	-0.150
505.67	-0.050
505.89	-0.039
506.12	-0.126
506.35	-0.165
506.57	-0.085
506.80	-0.133
507.03	-0.113
507.25	-0.140
507.48	-0.207
507.71	-0.182
507.93	-0.215
508.16	-0.195
508.39	-0.229
508.61	-0.226
508.84	-0.161
509.07	-0.166
509.29	-0.099
509.52	-0.114
509.75	-0.170
509.97	-0.139
510.20	-0.072
510.43	-0.155
510.65	-0.111
510.88	-0.159
511.10	-0.054
511.33	-0.119
511.56	-0.121
511.78	-0.130
512.01	-0.110
512.24	-0.092
512.46	-0.128
512.69	-0.126
512.92	-0.136
513.14	-0.137
513.37	-0.095
513.59	-0.178
513.82	-0.071
514.05	-0.105
514.27	-0.110
514.50	-0.112
514.73	-0.062
514.95	-0.082
515.18	-0.156
515.40	-0.126
515.63	-0.111
515.86	-0.048
516.08	-0.121
516.31	-0.050
516.54	-0.090
516.76	-0.112
516.99	-0.183
517.21	-0.129
517.44	-0.096
517.67	-0.075
517.89	-0.090
518.12	0.003
518.34	0.013
518.57	-0.164
518.80	-0.126
519.02	-0.110
519.25	-0.072
519.47	-0.053
519.70	-0.080
519.93	-0.170
520.15	-0.115
520.38	-0.141
520.60	-0.101
520.83	-0.076
521.05	-0.120
521.28	-0.134
521.51	-0.105
521.73	-0.079
521.96	-0.097
522.18	-0.084
522.41	-0.052
522.63	-0.112
522.86	-0.060
523.09	-0.053
523.31	-0.109
523.54	-0.122
523.76	-0.075
523.99	-0.054
524.21	-0.165
524.44	-0.079
524.67	-0.065
524.89	-0.126
525.12	-0.058
525.34	-0.103
525.57	-0.170
525.79	-0.131
526.02	-0.067
526.24	-0.134
526.47	-0.121
526.69	-0.051
526.92	-0.065
527.15	-0.167
527.37	-0.132
527.60	-0.129
527.82	-0.066
528.05	0.002
528.27	-0.122
528.50	-0.083
528.72	-0.099
528.95	-0.105
529.17	-0.062
529.40	-0.124
529.62	-0.118
529.85	-0.151
530.07	-0.097
530.30	-0.019
530.52	-0.047
530.75	-0.012
530.98	-0.024
531.20	-0.059
531.43	-0.011
531.65	-0.049
531.88	-0.082
532.10	-0.085
532.33	-0.104
532.55	-0.104
532.78	-0.131
533.00	-0.061
533.23	-0.037
533.45	-0.088
533.68	-0.002
533.90	-0.095
534.13	-0.048
534.35	-0.133
534.58	-0.111
534.80	-0.132
535.03	-0.097
535.25	-0.050
535.47	-0.123
535.70	-0.036
535.92	-0.090
536.15	-0.060
536.37	-0.024
536.60	-0.029
536.82	0.008
537.05	-0.063
537.27	-0.027
537.50	-0.140
537.72	-0.099
537.95	-0.092
538.17	-0.109
538.40	-0.052
538.62	-0.074
538.85	-0.068
539.07	-0.045
539.29	-0.064
539.52	-0.102
539.74	-0.086
539.97	-0.091
540.19	-0.109
540.42	-0.063
540.64	-0.028
540.87	-0.042
541.09	-0.080
541.32	-0.022
541.54	-0.070
541.76	-0.102
541.99	-0.073
542.21	-0.102
542.44	-0.078
542.66	-0.116
542.89	-0.047
543.11	-0.011
543.33	-0.005
543.56	-0.041
543.78	-0.017
544.01	-0.047
544.23	-0.086
544.46	-0.074
544.68	-0.066
544.90	-0.028
545.13	-0.082
545.35	-0.063
545.58	-0.032
545.80	-0.097
546.03	-0.061
546.25	-0.071
546.47	-0.056
546.70	-0.012
546.92	-0.015
547.15	-0.025
547.37	-0.060
547.59	-0.045
547.82	-0.018
548.04	-0.020
548.27	-0.054
548.49	-0.084
548.71	-0.064
548.94	0.003
549.16	-0.044
549.39	-0.052
549.61	-0.008
549.83	0.028
550.06	-0.036
550.28	-0.050
550.50	-0.035
550.73	-0.029
550.95	-0.018
551.18	-0.023
551.40	-0.059
551.62	0.027
551.85	-0.083
552.07	-0.055
552.29	-0.006
552.52	-0.058
552.74	-0.029
552.97	-0.020
553.19	0.011
553.41	-0.015
553.64	-0.012
553.86	-0.046
554.08	-0.064
554.31	-0.073
554.53	-0.049
554.75	-0.020
554.98	-0.026
555.20	0.004
555.42	-0.028
555.65	0.000
555.87	-0.037
556.10	0.006
556.32	-0.073
556.54	-0.025
556.77	0.032
556.99	0.010
557.21	-0.006
557.44	-0.032
557.66	-0.028
557.88	-0.029
558.11	-0.050
558.33	-0.064
558.55	-0.079
558.78	-0.029
559.00	-0.005
559.22	-0.025
559.44	-0.015
559.67	-0.028
559.89	-0.028
560.11	-0.014
560.34	-0.016
560.56	-0.024
560.78	-0.010
561.01	-0.004
561.23	-0.021
561.45	-0.010
561.68	-0.041
561.90	-0.038
562.12	0.027
562.35	-0.011
562.57	0.003
562.79	0.009
563.01	-0.023
563.24	-0.025
563.46	-0.004
563.68	-0.011
563.91	-0.011
564.13	-0.001
564.35	-0.016
564.57	-0.009
564.80	-0.002
565.02	-0.021
565.24	0.015
565.47	0.029
565.69	0.020
565.91	-0.056
566.13	-0.016
566.36	0.005
566.58	0.005
566.80	0.001
567.02	0.011
567.25	0.004
567.47	0.036
567.69	-0.002
567.92	0.041
568.14	0.042
568.36	0.026
568.58	0.028
568.81	-0.002
569.03	-0.031
569.25	-0.016
569.47	0.007
569.70	0.021
569.92	0.026
570.14	0.018
570.36	0.041
570.59	0.028
570.81	0.029
571.03	0.024
571.25	0.011
571.47	0.030
571.70	0.031
571.92	-0.004
572.14	-0.021
572.36	-0.012
572.59	0.041
572.81	0.056
573.03	0.018
573.25	0.005
573.48	0.034
573.70	0.040
573.92	0.041
574.14	0.035
574.36	0.023
574.59	0.054
574.81	0.022
575.03	0.026
575.25	0.045
575.47	0.045
575.70	-0.008
575.92	0.025
576.14	0.060
576.36	0.017
576.59	0.039
576.81	0.052
577.03	0.027
577.25	0.055
577.47	0.057
577.69	0.054
577.92	0.037
578.14	-0.011
578.36	0.031
578.58	0.062
578.80	0.086
579.03	0.054
579.25	0.025
579.47	0.078
579.69	0.080
579.91	0.064
580.14	0.023
580.36	0.076
580.58	0.055
580.80	0.049
581.02	0.039
581.24	0.059
581.47	0.064
581.69	0.034
581.91	0.038
582.13	0.059
582.35	0.034
582.57	0.057
582.79	0.072
583.02	0.078
583.24	0.063
583.46	0.073
583.68	0.081
583.90	0.075
584.12	0.096
584.35	0.092
584.57	0.073
584.79	0.064
585.01	0.099
585.23	0.119
585.45	0.105
585.67	0.092
585.90	0.090
586.12	0.093
586.34	0.110
586.56	0.116
586.78	0.093
587.00	0.112
587.22	0.087
587.44	0.105
587.67	0.103
587.89	0.090
588.11	0.135
588.33	0.148
588.55	0.143
588.77	0.115
588.99	0.108
589.21	0.125
589.43	0.117
589.66	0.102
589.88	0.096
590.10	0.149
590.32	0.140
590.54	0.133
590.76	0.125
590.98	0.144
591.20	0.151
591.42	0.147
591.64	0.115
591.87	0.147
592.09	0.151
592.31	0.164
592.53	0.158
592.75	0.174
592.97	0.144
593.19	0.162
593.41	0.160
593.63	0.143
593.85	0.187
594.07	0.189
594.29	0.167
594.52	0.190
594.74	0.186
594.96	0.181
595.18	0.169
595.40	0.176
595.62	0.147
595.84	0.189
596.06	0.200
596.28	0.184
596.50	0.209
596.72	0.204
596.94	0.196
597.16	0.220
597.38	0.196
597.60	0.212
597.82	0.218
598.05	0.239
598.27	0.272
598.49	0.245
598.71	0.241
598.93	0.223
599.15	0.239
599.37	0.241
599.59	0.231
599.81	0.265
600.03	0.242
600.25	0.234
600.47	0.254
600.69	0.222
600.91	0.264
601.13	0.275
601.35	0.294
601.57	0.285
601.79	0.276
602.01	0.273
602.23	0.300
602.45	0.292
602.67	0.269
602.89	0.298
603.11	0.260
603.33	0.285
603.55	0.298
603.77	0.278
603.99	0.291
604.21	0.332
604.43	0.295
604.65	0.313
604.87	0.303
605.09	0.305
605.31	0.315
605.53	0.309
605.75	0.324
605.97	0.326
606.19	0.329
606.41	0.339
606.63	0.329
606.85	0.321
607.07	0.334
607.29	0.355
607.51	0.327
607.73	0.330
607.95	0.326
608.17	0.333
608.39	0.366
608.61	0.356
608.83	0.387
609.05	0.332
609.27	0.355
609.49	0.369
609.71	0.359
609.93	0.352
610.15	0.347
610.37	0.373
610.59	0.402
610.81	0.393
611.03	0.400
611.24	0.394
611.46	0.385
611.68	0.415
611.90	0.399
612.12	0.394
612.34	0.399
612.56	0.401
612.78	0.410
613.00	0.407
613.22	0.434
613.44	0.449
613.66	0.439
613.88	0.420
614.10	0.431
614.32	0.441
614.54	0.452
614.75	0.453
614.97	0.443
615.19	0.446
615.41	0.459
615.63	0.457
615.85	0.466
616.07	0.460
616.29	0.465
616.51	0.458
616.73	0.456
616.95	0.489
617.17	0.476
617.38	0.469
617.60	0.487
617.82	0.484
618.04	0.494
618.26	0.465
618.48	0.494
618.70	0.482
618.92	0.504
619.14	0.510
619.36	0.517
619.57	0.509
619.79	0.499
620.01	0.552
620.23	0.541
620.45	0.503
620.67	0.489
620.89	0.558
621.11	0.533
621.33	0.551
621.54	0.553
621.76	0.576
621.98	0.570
622.20	0.543
622.42	0.544
622.64	0.563
622.86	0.558
623.07	0.583
623.29	0.592
623.51	0.575
623.73	0.579
623.95	0.552
624.17	0.598
624.39	0.591
624.60	0.621
624.82	0.634
625.04	0.638
625.26	0.640
625.48	0.609
625.70	0.631
625.92	0.612
626.13	0.611
626.35	0.622
626.57	0.607
626.79	0.649
627.01	0.649
627.23	0.662
627.44	0.642
627.66	0.663
627.88	0.684
628.10	0.662
628.32	0.655
628.54	0.690
628.75	0.682
628.97	0.672
629.19	0.700
629.41	0.674
629.63	0.720
629.84	0.695
630.06	0.708
630.28	0.697
630.50	0.701
630.72	0.669
630.94	0.701
631.15	0.724
631.37	0.693
631.59	0.713
631.81	0.739
632.03	0.734
632.24	0.746
632.46	0.746
632.68	0.740
632.90	0.744
633.11	0.782
633.33	0.728
633.55	0.756
633.77	0.750
633.99	0.772
634.20	0.787
634.42	0.766
634.64	0.774
634.86	0.792
635.08	0.778
635.29	0.791
635.51	0.768
635.73	0.794
635.95	0.802
636.16	0.822
636.38	0.811
636.60	0.817
636.82	0.843
637.03	0.841
637.25	0.841
637.47	0.824
637.69	0.833
637.90	0.846
638.12	0.852
638.34	0.864
638.56	0.890
638.77	0.870
638.99	0.858
639.21	0.872
639.43	0.873
639.64	0.871
639.86	0.886
640.08	0.897
640.30	0.903
640.51	0.927
640.73	0.921
640.95	0.904
641.17	0.923
641.38	0.956
641.60	0.943
641.82	0.971
642.03	0.954
642.25	0.960
642.47	0.948
642.69	0.961
642.90	0.960
643.12	0.974
643.34	0.976
643.55	1.002
643.77	1.004
643.99	1.003
644.21	1.017
644.42	1.021
644.64	1.010
644.86	0.987
645.07	1.015
645.29	1.032
645.51	1.017
645.73	1.009
645.94	1.042
646.16	1.058
646.38	1.038
646.59	1.054
646.81	1.053
647.03	1.036
647.24	1.087
647.46	1.091
647.68	1.088
647.89	1.081
648.11	1.085
648.33	1.089
648.54	1.085
648.76	1.115
648.98	1.103
649.19	1.144
649.41	1.156
649.63	1.163
649.84	1.177
650.06	1.134
650.28	1.164
650.49	1.151
650.71	1.165
650.93	1.154
651.14	1.168
651.36	1.185
651.58	1.204
651.79	1.223
652.01	1.226
652.23	1.210
652.44	1.213
652.66	1.238
652.88	1.235
653.09	1.226
653.31	1.222
653.52	1.236
653.74	1.273
653.96	1.265
654.17	1.269
654.39	1.257
654.61	1.289
654.82	1.292
655.04	1.277
655.25	1.338
655.47	1.316
655.69	1.314
655.90	1.328
656.12	1.324
656.34	1.325
656.55	1.377
656.77	1.334
656.98	1.347
657.20	1.351
657.42	1.331
657.63	1.370
657.85	1.373
658.06	1.371
658.28	1.384
658.50	1.360
658.71	1.374
658.93	1.395
659.14	1.417
659.36	1.446
659.58	1.459
659.79	1.446
660.01	1.483
660.22	1.462
660.44	1.457
660.65	1.469
660.87	1.498
661.09	1.496
661.30	1.503
661.52	1.514
661.73	1.501
661.95	1.515
662.16	1.549
662.38	1.512
662.60	1.528
662.81	1.521
663.03	1.563
663.24	1.547
663.46	1.574
663.67	1.571
663.89	1.567
664.11	1.615
664.32	1.614
664.54	1.657
664.75	1.658
664.97	1.664
665.18	1.660
665.40	1.693
665.61	1.714
665.83	1.706
666.04	1.720
666.26	1.752
666.48	1.760
666.69	1.762
666.91	1.766
667.12	1.778
667.34	1.816
667.55	1.839
667.77	1.869
667.98	1.869
668.20	1.895
668.41	1.908
668.63	1.932
668.84	1.958
669.06	1.948
669.27	1.969
