OOIBase32 Version 2.0.1.4 Data File
++++++++++++++++++++++++++++++++++++
Date: 11-03-2025, 10:59:02
User: Valued Ocean Optics Customer
Spectrometer Serial Number: HR2B216
Spectrometer Channel: Master
Integration Time (msec): 5
Spectra Averaged: 80
Boxcar Smoothing: 0
Correct for Electrical Dark: Disabled
Time Normalized: Disabled
Dual-beam Reference: Disabled
Reference Channel: Master
Temperature: Not acquired
Spectrometer Type: S2000
ADC Type: HR2000
Number of Pixels in File: 2048
Graph Title: 
>>>>>Begin Spectral Data<<<<<
373.12	0.000
373.35	-156.000
373.59	11195.912
373.82	1033.311
374.06	-126.316
374.29	-102.702
374.53	3.896
374.76	-80.555
375.00	11295.912
375.23	-357.904
375.47	-192.859
375.70	-106.250
375.94	-216.001
376.17	340.000
376.40	346.157
376.64	-2333.428
376.87	2350.206
377.11	-161.764
377.34	790.884
377.58	321.430
377.81	-231.574
378.05	-155.002
378.28	-192.597
378.52	-118.966
378.75	-95.454
378.99	-28.262
379.22	-182.928
379.45	-39.855
379.69	-37.168
379.92	-62.931
380.16	-18.500
380.39	-7.408
380.63	-61.654
380.86	-58.975
381.10	-45.390
381.33	-37.791
381.56	-24.713
381.80	-47.170
382.03	-4.878
382.27	-32.203
382.50	-31.361
382.74	-60.241
382.97	-23.590
383.21	-40.414
383.44	-35.915
383.67	-23.153
383.91	-50.335
384.14	-25.128
384.38	-34.872
384.61	-16.157
384.84	-21.461
385.08	-32.609
385.31	-22.222
385.55	-13.502
385.78	-32.766
386.02	-31.746
386.25	-10.407
386.48	-27.632
386.72	-14.870
386.95	-15.738
387.19	-37.344
387.42	-29.148
387.65	-26.154
387.89	-19.703
388.12	-29.778
388.36	-26.506
388.59	-1.454
388.82	-21.428
389.06	-13.208
389.29	10.400
389.53	-4.575
389.76	-6.355
389.99	-16.791
390.23	-2.920
390.46	-16.606
390.70	-15.542
390.93	-11.003
391.16	-10.526
391.40	-22.408
391.63	-16.129
391.87	-24.915
392.10	-9.712
392.33	-7.407
392.57	-37.075
392.80	-15.217
393.03	-4.706
393.27	-13.743
393.50	-6.745
393.74	-0.840
393.97	-6.701
394.20	-17.830
394.44	-22.965
394.67	-21.212
394.90	-16.326
395.14	-16.434
395.37	-10.269
395.60	-18.684
395.84	0.713
396.07	-4.484
396.31	-5.924
396.54	-10.526
396.77	-7.914
397.01	-1.016
397.24	-2.657
397.47	-11.441
397.71	-13.823
397.94	-5.835
398.17	-7.061
398.41	-8.478
398.64	-15.134
398.87	-14.971
399.11	-7.875
399.34	-16.974
399.57	-12.500
399.81	-5.066
400.04	-11.585
400.27	-17.418
400.51	-5.586
400.74	-8.007
400.97	-5.690
401.21	-8.812
401.44	-20.221
401.67	-13.942
401.91	-2.738
402.14	-4.377
402.37	-10.066
402.61	-2.799
402.84	-12.072
403.07	-8.062
403.31	-0.147
403.54	-10.661
403.77	-9.294
404.00	-12.520
404.24	-3.776
404.47	-6.720
404.70	-3.356
404.94	-2.410
405.17	-5.825
405.40	-1.311
405.64	-6.117
405.87	-8.291
406.10	-5.812
406.34	-1.687
406.57	-0.368
406.80	-8.470
407.03	-2.323
407.27	-3.293
407.50	-0.241
407.73	-7.683
407.97	-2.703
408.20	-2.509
408.43	-1.602
408.66	-3.392
408.90	-5.918
409.13	-4.931
409.36	-0.856
409.60	0.779
409.83	-1.569
410.06	-10.224
410.29	-3.712
410.53	-0.941
410.76	-6.067
410.99	-3.410
411.22	-5.019
411.46	-5.538
411.69	-3.881
411.92	-5.577
412.16	-4.860
412.39	-2.822
412.62	-1.195
412.85	-0.170
413.09	-3.282
413.32	-5.185
413.55	-2.267
413.78	-3.374
414.02	-2.217
414.25	-5.852
414.48	0.083
414.71	-3.769
414.95	-6.527
415.18	-1.738
415.41	-2.913
415.64	-2.322
415.88	-2.769
416.11	-3.804
416.34	-5.632
416.57	-7.473
416.80	-0.212
417.04	-3.392
417.27	-7.692
417.50	-3.343
417.73	-1.642
417.97	-3.735
418.20	-5.094
418.43	-3.966
418.66	-3.503
418.90	-2.754
419.13	-6.841
419.36	-6.841
419.59	-0.803
419.82	-0.683
420.06	0.575
420.29	-2.122
420.52	-1.950
420.75	-3.988
420.98	-7.951
421.22	-2.964
421.45	-2.740
421.68	-2.872
421.91	-4.430
422.15	-1.823
422.38	-1.773
422.61	-4.734
422.84	-2.838
423.07	-3.435
423.31	-3.269
423.54	-2.706
423.77	0.456
424.00	-2.822
424.23	-1.297
424.46	-1.847
424.70	-0.336
424.93	-2.790
425.16	-2.028
425.39	-3.593
425.62	-3.646
425.86	-5.425
426.09	-2.656
426.32	-2.736
426.55	-3.034
426.78	-3.170
427.01	-4.709
427.25	-2.223
427.48	-1.273
427.71	-1.015
427.94	-2.729
428.17	-2.239
428.40	-0.367
428.64	-2.605
428.87	-2.261
429.10	-1.726
429.33	-1.083
429.56	-1.598
429.79	-1.573
430.03	-1.731
430.26	-2.338
430.49	0.196
430.72	-0.441
430.95	-0.038
431.18	-1.280
431.42	-2.671
431.65	-1.967
431.88	-1.445
432.11	-2.742
432.34	-1.490
432.57	-3.958
432.80	-1.946
433.04	-0.461
433.27	-0.942
433.50	-2.142
433.73	-2.130
433.96	-1.969
434.19	-1.074
434.42	-2.165
434.65	-2.054
434.89	-0.729
435.12	-0.744
435.35	-1.402
435.58	-1.168
435.81	-0.778
436.04	-1.121
436.27	-1.933
436.50	-0.586
436.74	-1.372
436.97	-2.926
437.20	-0.647
437.43	-1.101
437.66	-1.509
437.89	-2.542
438.12	-1.756
438.35	-2.053
438.58	-2.129
438.82	-0.796
439.05	-1.075
439.28	-1.962
439.51	-1.406
439.74	-1.092
439.97	-0.950
440.20	-0.396
440.43	-0.426
440.66	-1.632
440.89	-2.025
441.12	-0.465
441.36	-0.405
441.59	-0.173
441.82	0.106
442.05	-0.574
442.28	-0.776
442.51	-0.263
442.74	-0.583
442.97	-0.939
443.20	-1.733
443.43	-1.328
443.66	-1.057
443.89	-1.186
444.13	-0.581
444.36	-0.533
444.59	-0.158
444.82	-0.553
445.05	-1.642
445.28	-0.914
445.51	0.107
445.74	-0.591
445.97	-1.222
446.20	-1.934
446.43	-0.708
446.66	-1.215
446.89	-0.568
447.12	-0.162
447.35	-0.524
447.58	0.131
447.81	-0.690
448.05	-0.933
448.28	-0.844
448.51	-2.076
448.74	-0.842
448.97	-1.515
449.20	-1.291
449.43	-0.622
449.66	-1.343
449.89	-1.050
450.12	-0.143
450.35	-0.664
450.58	-1.989
450.81	-1.275
451.04	-0.131
451.27	-0.253
451.50	-0.618
451.73	-0.185
451.96	-0.554
452.19	-0.422
452.42	-1.104
452.65	-0.654
452.88	-0.317
453.11	-0.302
453.34	-0.951
453.57	-0.218
453.80	-1.212
454.03	-0.890
454.26	-1.010
454.49	-0.664
454.72	-1.082
454.95	-0.953
455.18	-0.580
455.41	-0.979
455.64	-0.928
455.87	-0.884
456.10	-1.229
456.33	-1.014
456.56	-0.624
456.79	-0.542
457.02	-0.363
457.25	-0.763
457.48	-0.691
457.71	-0.202
457.94	-0.207
458.17	-0.563
458.40	-0.909
458.63	-1.133
458.86	-0.882
459.09	-1.105
459.32	-0.583
459.55	-0.696
459.78	-0.458
460.01	-0.419
460.24	-0.181
460.47	-1.040
460.70	-0.551
460.93	-0.198
461.16	-0.236
461.39	-0.042
461.62	-0.258
461.85	-0.450
462.08	-0.619
462.31	-0.600
462.54	-0.274
462.77	-0.376
463.00	-0.142
463.22	-0.382
463.45	-0.609
463.68	0.116
463.91	-0.019
464.14	-0.028
464.37	-0.760
464.60	-0.753
464.83	-0.204
465.06	-0.454
465.29	-0.460
465.52	-0.913
465.75	-0.805
465.98	-0.723
466.21	0.093
466.44	-0.059
466.67	-1.041
466.90	-0.555
467.12	-0.647
467.35	-0.381
467.58	-0.465
467.81	0.000
468.04	-0.464
468.27	-0.095
468.50	-0.674
468.73	-0.143
468.96	-0.392
469.19	-0.320
469.42	-0.201
469.65	-0.322
469.87	-0.233
470.10	-0.287
470.33	-0.423
470.56	-0.278
470.79	-0.454
471.02	-0.329
471.25	-0.327
471.48	-0.091
471.71	-0.400
471.94	-0.442
472.17	-0.601
472.39	-0.489
472.62	-0.223
472.85	0.068
473.08	-0.158
473.31	-0.248
473.54	-0.472
473.77	-0.455
474.00	-0.314
474.23	0.000
474.45	-0.078
474.68	-0.268
474.91	-0.212
475.14	-0.162
475.37	-0.664
475.60	-0.498
475.83	-0.315
476.06	-0.052
476.28	-0.421
476.51	-0.197
476.74	-0.120
476.97	-0.419
477.20	-0.089
477.43	-0.300
477.66	-0.165
477.88	-0.342
478.11	-0.236
478.34	-0.160
478.57	-0.296
478.80	-0.257
479.03	-0.345
479.26	-0.309
479.48	-0.088
479.71	-0.275
479.94	-0.186
480.17	-0.155
480.40	-0.288
480.63	-0.163
480.86	-0.130
481.08	-0.155
481.31	-0.320
481.54	-0.110
481.77	-0.317
482.00	-0.203
482.23	-0.112
482.45	-0.102
482.68	-0.046
482.91	-0.069
483.14	0.000
483.37	-0.127
483.60	-0.249
483.82	-0.097
484.05	0.045
484.28	0.069
484.51	-0.036
484.74	-0.061
484.96	-0.054
485.19	-0.130
485.42	-0.230
485.65	-0.315
485.88	-0.128
486.10	-0.151
486.33	-0.200
486.56	-0.278
486.79	-0.117
487.02	-0.109
487.25	-0.214
487.47	-0.106
487.70	-0.168
487.93	-0.201
488.16	-0.236
488.39	-0.169
488.61	0.028
488.84	-0.159
489.07	-0.003
489.30	-0.049
489.52	-0.162
489.75	-0.224
489.98	0.036
490.21	-0.144
490.44	-0.125
490.66	-0.223
490.89	-0.120
491.12	-0.123
491.35	-0.194
491.57	-0.238
491.80	-0.138
492.03	-0.239
492.26	-0.221
492.49	-0.159
492.71	-0.074
492.94	-0.135
493.17	-0.248
493.40	-0.079
493.62	-0.159
493.85	0.008
494.08	-0.121
494.31	-0.037
494.53	-0.110
494.76	-0.153
494.99	-0.106
495.22	-0.182
495.44	-0.321
495.67	-0.187
495.90	-0.188
496.13	-0.105
496.35	-0.121
496.58	-0.010
496.81	-0.039
497.04	-0.059
497.26	-0.109
497.49	-0.099
497.72	-0.171
497.95	-0.146
498.17	-0.037
498.40	0.042
498.63	-0.063
498.85	-0.131
499.08	-0.098
499.31	-0.061
499.54	-0.059
499.76	0.106
499.99	-0.062
500.22	-0.084
500.44	0.049
500.67	-0.103
500.90	-0.120
501.13	-0.118
501.35	-0.086
501.58	-0.090
501.81	-0.132
502.03	-0.038
502.26	-0.027
502.49	-0.046
502.72	-0.054
502.94	-0.100
503.17	0.008
503.40	-0.002
503.62	-0.061
503.85	-0.061
504.08	-0.086
504.30	-0.044
504.53	0.039
504.76	0.103
504.98	-0.081
505.21	-0.091
505.44	-0.075
505.67	-0.084
505.89	-0.054
506.12	-0.103
506.35	-0.036
506.57	-0.090
506.80	-0.139
507.03	-0.081
507.25	-0.092
507.48	-0.120
507.71	0.029
507.93	-0.055
508.16	-0.099
508.39	-0.044
508.61	0.000
508.84	0.004
509.07	-0.014
509.29	-0.047
509.52	-0.054
509.75	-0.057
509.97	-0.045
510.20	-0.016
510.43	-0.065
510.65	-0.080
510.88	0.016
511.10	-0.021
511.33	-0.100
511.56	-0.110
511.78	0.015
512.01	-0.026
512.24	-0.060
512.46	-0.099
512.69	-0.068
512.92	-0.063
513.14	-0.066
513.37	-0.036
513.59	-0.059
513.82	-0.139
514.05	0.005
514.27	-0.025
514.50	-0.059
514.73	-0.062
514.95	-0.023
515.18	-0.060
515.40	-0.042
515.63	-0.060
515.86	-0.042
516.08	-0.008
516.31	0.065
516.54	0.047
516.76	0.009
516.99	-0.061
517.21	-0.039
517.44	0.026
517.67	0.005
517.89	0.047
518.12	-0.012
518.34	-0.014
518.57	-0.008
518.80	0.023
519.02	-0.021
519.25	-0.039
519.47	-0.027
519.70	0.010
519.93	-0.025
520.15	-0.083
520.38	0.032
520.60	-0.001
520.83	0.000
521.05	0.001
521.28	0.018
521.51	-0.031
521.73	-0.032
521.96	0.049
522.18	0.028
522.41	0.017
522.63	0.075
522.86	0.070
523.09	0.017
523.31	0.003
523.54	0.031
523.76	-0.023
523.99	0.030
524.21	-0.056
524.44	-0.011
524.67	0.017
524.89	-0.018
525.12	-0.031
525.34	0.028
525.57	-0.028
525.79	-0.003
526.02	0.043
526.24	0.012
526.47	0.046
526.69	0.040
526.92	-0.031
527.15	0.067
527.37	0.054
527.60	0.025
527.82	-0.067
528.05	0.041
528.27	-0.020
528.50	0.033
528.72	0.049
528.95	0.014
529.17	-0.043
529.40	0.022
529.62	0.014
529.85	0.065
530.07	0.075
530.30	0.023
530.52	0.010
530.75	0.031
530.98	-0.041
531.20	0.017
531.43	-0.009
531.65	-0.038
531.88	-0.078
532.10	-0.080
532.33	0.022
532.55	0.004
532.78	-0.074
533.00	0.010
533.23	0.037
533.45	-0.017
533.68	0.019
533.90	0.014
534.13	0.030
534.35	0.010
534.58	0.037
534.80	0.006
535.03	-0.002
535.25	0.017
535.47	0.039
535.70	0.021
535.92	0.035
536.15	-0.022
536.37	0.003
536.60	0.036
536.82	0.008
537.05	-0.003
537.27	-0.006
537.50	0.007
537.72	-0.050
537.95	0.044
538.17	0.076
538.40	0.035
538.62	-0.008
538.85	0.034
539.07	-0.006
539.29	0.012
539.52	0.057
539.74	0.054
539.97	0.048
540.19	0.058
540.42	0.049
540.64	0.032
540.87	-0.006
541.09	0.048
541.32	0.057
541.54	0.063
541.76	-0.013
541.99	0.031
542.21	0.027
542.44	0.025
542.66	0.032
542.89	0.032
543.11	0.053
543.33	0.049
543.56	0.033
543.78	0.028
544.01	0.052
544.23	0.079
544.46	-0.011
544.68	0.052
544.90	0.085
545.13	0.085
545.35	0.044
545.58	0.094
545.80	0.048
546.03	0.049
546.25	0.069
546.47	0.031
546.70	0.040
546.92	0.053
547.15	0.027
547.37	0.072
547.59	0.086
547.82	0.065
548.04	0.060
548.27	0.062
548.49	0.068
548.71	0.048
548.94	0.064
549.16	0.062
549.39	0.074
549.61	0.071
549.83	0.106
550.06	0.085
550.28	0.072
550.50	0.087
550.73	0.105
550.95	0.093
551.18	0.083
551.40	0.050
551.62	0.079
551.85	0.066
552.07	0.081
552.29	0.068
552.52	0.035
552.74	0.066
552.97	0.079
553.19	0.074
553.41	0.077
553.64	0.062
553.86	0.051
554.08	0.043
554.31	0.087
554.53	0.065
554.75	0.070
554.98	0.125
555.20	0.076
555.42	0.075
555.65	0.063
555.87	0.077
556.10	0.052
556.32	0.044
556.54	0.096
556.77	0.123
556.99	0.091
557.21	0.084
557.44	0.088
557.66	0.055
557.88	0.108
558.11	0.109
558.33	0.113
558.55	0.097
558.78	0.083
559.00	0.109
559.22	0.109
559.44	0.113
559.67	0.110
559.89	0.103
560.11	0.095
560.34	0.088
560.56	0.098
560.78	0.096
561.01	0.131
561.23	0.159
561.45	0.108
561.68	0.114
561.90	0.166
562.12	0.153
562.35	0.111
562.57	0.111
562.79	0.099
563.01	0.137
563.24	0.166
563.46	0.178
563.68	0.171
563.91	0.130
564.13	0.150
564.35	0.119
564.57	0.121
564.80	0.103
565.02	0.151
565.24	0.186
565.47	0.153
565.69	0.144
565.91	0.187
566.13	0.154
566.36	0.118
566.58	0.143
566.80	0.149
567.02	0.161
567.25	0.173
567.47	0.153
567.69	0.222
567.92	0.211
568.14	0.196
568.36	0.164
568.58	0.143
568.81	0.185
569.03	0.194
569.25	0.173
569.47	0.171
569.70	0.181
569.92	0.189
570.14	0.210
570.36	0.215
570.59	0.209
570.81	0.201
571.03	0.238
571.25	0.230
571.47	0.226
571.70	0.232
571.92	0.213
572.14	0.207
572.36	0.200
572.59	0.238
572.81	0.255
573.03	0.233
573.25	0.231
573.48	0.218
573.70	0.267
573.92	0.265
574.14	0.247
574.36	0.278
574.59	0.295
574.81	0.274
575.03	0.296
575.25	0.253
575.47	0.319
575.70	0.311
575.92	0.287
576.14	0.304
576.36	0.302
576.59	0.260
576.81	0.306
577.03	0.269
577.25	0.281
577.47	0.299
577.69	0.334
577.92	0.350
578.14	0.318
578.36	0.341
578.58	0.353
578.80	0.355
579.03	0.372
579.25	0.357
579.47	0.327
579.69	0.337
579.91	0.336
580.14	0.364
580.36	0.380
580.58	0.385
580.80	0.380
581.02	0.383
581.24	0.380
581.47	0.393
581.69	0.404
581.91	0.380
582.13	0.417
582.35	0.430
582.57	0.409
582.79	0.417
583.02	0.433
583.24	0.433
583.46	0.427
583.68	0.446
583.90	0.426
584.12	0.419
584.35	0.429
584.57	0.444
584.79	0.434
585.01	0.440
585.23	0.473
585.45	0.447
585.67	0.472
585.90	0.460
586.12	0.493
586.34	0.488
586.56	0.476
586.78	0.479
587.00	0.499
587.22	0.500
587.44	0.489
587.67	0.512
587.89	0.509
588.11	0.508
588.33	0.533
588.55	0.537
588.77	0.545
588.99	0.539
589.21	0.546
589.43	0.554
589.66	0.533
589.88	0.558
590.10	0.570
590.32	0.530
590.54	0.567
590.76	0.604
590.98	0.589
591.20	0.590
591.42	0.575
591.64	0.546
591.87	0.580
592.09	0.599
592.31	0.592
592.53	0.585
592.75	0.580
592.97	0.574
593.19	0.584
593.41	0.639
593.63	0.653
593.85	0.645
594.07	0.673
594.29	0.630
594.52	0.656
594.74	0.640
594.96	0.651
595.18	0.650
595.40	0.641
595.62	0.656
595.84	0.656
596.06	0.695
596.28	0.692
596.50	0.678
596.72	0.694
596.94	0.689
597.16	0.672
597.38	0.688
597.60	0.715
597.82	0.686
598.05	0.726
598.27	0.721
598.49	0.735
598.71	0.730
598.93	0.728
599.15	0.732
599.37	0.722
599.59	0.736
599.81	0.733
600.03	0.765
600.25	0.710
600.47	0.774
600.69	0.797
600.91	0.772
601.13	0.807
601.35	0.800
601.57	0.794
601.79	0.797
602.01	0.773
602.23	0.817
602.45	0.811
602.67	0.820
602.89	0.848
603.11	0.874
603.33	0.840
603.55	0.847
603.77	0.823
603.99	0.841
604.21	0.845
604.43	0.852
604.65	0.837
604.87	0.863
605.09	0.847
605.31	0.899
605.53	0.874
605.75	0.886
605.97	0.905
606.19	0.920
606.41	0.914
606.63	0.933
606.85	0.943
607.07	0.913
607.29	0.943
607.51	0.917
607.73	0.914
607.95	0.931
608.17	0.919
608.39	0.952
608.61	0.972
608.83	0.982
609.05	0.998
609.27	0.977
609.49	0.964
609.71	0.951
609.93	1.027
610.15	0.982
610.37	1.022
610.59	1.003
610.81	0.983
611.03	0.991
611.24	0.995
611.46	0.987
611.68	1.054
611.90	1.029
612.12	1.059
612.34	1.060
612.56	1.089
612.78	1.088
613.00	1.106
613.22	1.106
613.44	1.111
613.66	1.088
613.88	1.084
614.10	1.064
614.32	1.113
614.54	1.092
614.75	1.103
614.97	1.109
615.19	1.139
615.41	1.119
615.63	1.147
615.85	1.122
616.07	1.157
616.29	1.184
616.51	1.164
616.73	1.183
616.95	1.190
617.17	1.168
617.38	1.168
617.60	1.181
617.82	1.207
618.04	1.185
618.26	1.183
618.48	1.210
618.70	1.248
618.92	1.288
619.14	1.244
619.36	1.291
619.57	1.268
619.79	1.288
620.01	1.266
620.23	1.288
620.45	1.285
620.67	1.288
620.89	1.297
621.11	1.267
621.33	1.300
621.54	1.307
621.76	1.307
621.98	1.353
622.20	1.334
622.42	1.358
622.64	1.379
622.86	1.376
623.07	1.376
623.29	1.362
623.51	1.393
623.73	1.391
623.95	1.395
624.17	1.399
624.39	1.429
624.60	1.457
624.82	1.456
625.04	1.492
625.26	1.492
625.48	1.496
625.70	1.506
625.92	1.534
626.13	1.549
626.35	1.515
626.57	1.515
626.79	1.574
627.01	1.535
627.23	1.538
627.44	1.545
627.66	1.563
627.88	1.596
628.10	1.603
628.32	1.596
628.54	1.621
628.75	1.645
628.97	1.647
629.19	1.650
629.41	1.625
629.63	1.641
629.84	1.651
630.06	1.680
630.28	1.679
630.50	1.691
630.72	1.666
630.94	1.674
631.15	1.703
631.37	1.720
631.59	1.762
631.81	1.762
632.03	1.748
632.24	1.755
632.46	1.768
632.68	1.755
632.90	1.766
633.11	1.783
633.33	1.736
633.55	1.754
633.77	1.764
633.99	1.761
634.20	1.733
634.42	1.780
634.64	1.813
634.86	1.821
635.08	1.842
635.29	1.820
635.51	1.840
635.73	1.811
635.95	1.803
636.16	1.802
636.38	1.833
636.60	1.808
636.82	1.803
637.03	1.829
637.25	1.858
637.47	1.864
637.69	1.867
637.90	1.859
638.12	1.886
638.34	1.893
638.56	1.891
638.77	1.896
638.99	1.919
639.21	1.929
639.43	1.965
639.64	2.016
639.86	2.034
640.08	2.066
640.30	2.115
640.51	2.150
640.73	2.174
640.95	2.198
641.17	2.232
641.38	2.281
641.60	2.293
641.82	2.345
642.03	2.374
642.25	2.392
642.47	2.415
642.69	2.440
642.90	2.496
643.12	2.530
643.34	2.559
643.55	2.626
643.77	2.641
643.99	2.676
644.21	2.653
644.42	2.668
644.64	2.691
644.86	2.730
645.07	2.746
645.29	2.739
645.51	2.791
645.73	2.837
645.94	2.864
646.16	2.923
646.38	2.916
646.59	2.975
646.81	2.994
647.03	3.043
647.24	3.054
647.46	3.067
647.68	3.069
647.89	3.093
648.11	3.164
648.33	3.177
648.54	3.240
648.76	3.283
648.98	3.263
649.19	3.346
649.41	3.417
649.63	3.448
649.84	3.466
650.06	3.457
650.28	3.487
650.49	3.570
650.71	3.601
650.93	3.594
651.14	3.664
651.36	3.642
651.58	3.647
651.79	3.670
652.01	3.662
652.23	3.690
652.44	3.734
652.66	3.776
652.88	3.813
653.09	3.839
653.31	3.843
653.52	3.874
653.74	3.859
653.96	3.910
654.17	3.878
654.39	3.899
654.61	3.858
654.82	3.848
655.04	3.839
655.25	3.817
655.47	3.809
655.69	3.830
655.90	3.823
656.12	3.807
656.34	3.773
656.55	3.761
656.77	3.741
656.98	3.760
657.20	3.779
657.42	3.796
657.63	3.826
657.85	3.893
658.06	3.975
658.28	3.980
658.50	4.053
658.71	4.064
658.93	4.097
659.14	4.096
659.36	4.153
659.58	4.160
659.79	4.178
660.01	4.231
660.22	4.244
660.44	4.333
660.65	4.368
660.87	4.484
661.09	4.480
661.30	4.477
661.52	4.473
661.73	4.451
661.95	4.404
662.16	4.380
662.38	4.474
662.60	4.530
662.81	4.628
663.03	4.850
663.24	5.050
663.46	5.317
663.67	5.592
663.89	5.833
664.11	5.983
664.32	6.201
664.54	6.355
664.75	6.472
664.97	6.557
665.18	6.659
665.40	6.703
665.61	6.757
665.83	6.797
666.04	6.806
666.26	6.862
666.48	6.940
666.69	6.991
666.91	7.106
667.12	7.194
667.34	7.118
667.55	7.044
667.77	6.940
667.98	6.915
668.20	6.953
668.41	7.201
668.63	7.763
668.84	8.419
669.06	9.135
669.27	9.784
669.49	10.379
669.70	10.778
669.92	11.064
670.13	11.183
670.35	11.170
670.56	11.217
670.78	11.297
670.99	11.486
671.21	11.613
671.42	11.724
671.64	11.989
671.85	12.335
672.07	12.679
672.28	13.109
672.50	13.461
672.71	13.914
672.93	14.263
673.14	14.742
673.36	15.182
