OOIBase32 Version 2.0.1.4 Data File
++++++++++++++++++++++++++++++++++++
Date: 11-03-2025, 09:57:37
User: Valued Ocean Optics Customer
Spectrometer Serial Number: HR2B216
Spectrometer Channel: Master
Integration Time (msec): 5
Spectra Averaged: 80
Boxcar Smoothing: 0
Correct for Electrical Dark: Disabled
Time Normalized: Disabled
Dual-beam Reference: Disabled
Reference Channel: Master
Temperature: Not acquired
Spectrometer Type: S2000
ADC Type: HR2000
Number of Pixels in File: 2048
Graph Title: 
>>>>>Begin Spectral Data<<<<<
373.12	0.000
373.35	-1016.704
373.59	-862.443
373.82	-104.544
374.06	-239.280
374.29	-73.471
374.53	-131.371
374.76	-384.619
375.00	-75.000
375.23	-81.035
375.47	-71.952
375.70	-21.552
375.94	-43.529
376.17	-37.180
376.40	-8502.076
376.64	-190.325
376.87	-126.788
377.11	-1137.616
377.34	-225.808
377.58	-437.507
377.81	-357.137
378.05	-257.152
378.28	-49.206
378.52	-92.856
378.75	1739.990
378.99	-136.001
379.22	-88.890
379.45	-6.993
379.69	-42.941
379.92	-17.352
380.16	-40.678
380.39	-16.923
380.63	2.490
380.86	-30.677
381.10	-25.630
381.33	-8.837
381.56	-19.901
381.80	-12.917
382.03	-29.592
382.27	-23.656
382.50	-17.623
382.74	-23.697
382.97	-6.316
383.21	-2.961
383.44	-9.266
383.67	-21.186
383.91	-2.198
384.14	-17.343
384.38	-1.295
384.61	12.782
384.84	-6.050
385.08	-9.774
385.31	-12.371
385.55	-0.641
385.78	-10.039
386.02	-7.600
386.25	-0.987
386.48	13.352
386.72	16.242
386.95	-8.735
387.19	-12.287
387.42	-16.199
387.65	-32.997
387.89	-6.250
388.12	5.247
388.36	9.605
388.59	1.520
388.82	-2.090
389.06	-18.209
389.29	-23.077
389.53	-1.978
389.76	5.172
389.99	-7.377
390.23	0.470
390.46	-8.122
390.70	4.327
390.93	-12.849
391.16	-26.287
391.40	-18.857
391.63	-8.192
391.87	-11.538
392.10	-15.534
392.33	-10.074
392.57	-9.716
392.80	-5.463
393.03	4.575
393.27	4.812
393.50	0.000
393.74	-12.833
393.97	-3.083
394.20	-4.732
394.44	-11.607
394.67	-1.804
394.90	-6.067
395.14	-0.926
395.37	5.525
395.60	-9.655
395.84	-10.625
396.07	-10.448
396.31	1.145
396.54	0.193
396.77	-5.374
397.01	0.988
397.24	-1.739
397.47	-5.527
397.71	-6.209
397.94	-4.310
398.17	1.340
398.41	-6.569
398.64	-7.170
398.87	-3.317
399.11	-4.886
399.34	-10.264
399.57	0.902
399.81	-4.510
400.04	0.452
400.27	-9.823
400.51	0.570
400.74	2.235
400.97	1.416
401.21	3.821
401.44	-6.589
401.67	-11.603
401.91	-17.194
402.14	-6.043
402.37	-9.913
402.61	-5.555
402.84	5.607
403.07	-4.670
403.31	-3.743
403.54	-3.377
403.77	-7.331
404.00	-2.532
404.24	-2.058
404.47	-1.054
404.70	-2.603
404.94	-6.125
405.17	-3.571
405.40	-3.959
405.64	-5.896
405.87	3.185
406.10	-6.129
406.34	-3.413
406.57	-2.826
406.80	-5.292
407.03	-5.185
407.27	-2.802
407.50	2.444
407.73	-0.693
407.97	-1.971
408.20	0.597
408.43	-0.589
408.66	-3.144
408.90	1.848
409.13	5.840
409.36	-2.664
409.60	3.688
409.83	-1.340
410.06	2.053
410.29	-0.368
410.53	0.087
410.76	1.968
410.99	0.172
411.22	-2.840
411.46	-4.325
411.69	1.809
411.92	-6.285
412.16	-5.419
412.39	2.458
412.62	-0.467
412.85	2.099
413.09	-1.668
413.32	-1.849
413.55	-1.737
413.78	-1.135
414.02	-6.502
414.25	-4.470
414.48	-2.541
414.71	1.307
414.95	-2.119
415.18	3.261
415.41	-0.066
415.64	0.135
415.88	-0.678
416.11	-3.364
416.34	-4.109
416.57	-3.400
416.80	-2.660
417.04	0.522
417.27	2.103
417.50	0.975
417.73	1.157
417.97	1.429
418.20	-1.865
418.43	-0.402
418.66	-2.976
418.90	1.216
419.13	-2.408
419.36	-3.354
419.59	-3.787
419.82	-0.500
420.06	-0.619
420.29	-2.298
420.52	-2.728
420.75	-0.101
420.98	-3.376
421.22	-0.994
421.45	-2.918
421.68	-1.825
421.91	-2.156
422.15	0.772
422.38	-0.385
422.61	-1.948
422.84	-0.731
423.07	0.094
423.31	-0.605
423.54	-0.935
423.77	-0.886
424.00	-1.550
424.23	-1.489
424.46	-1.249
424.70	-1.659
424.93	1.870
425.16	-0.898
425.39	0.000
425.62	-1.160
425.86	-0.315
426.09	-0.472
426.32	-1.910
426.55	-1.477
426.78	-0.930
427.01	-2.758
427.25	0.603
427.48	-2.121
427.71	-1.125
427.94	-0.255
428.17	-0.206
428.40	-0.863
428.64	-1.823
428.87	-0.414
429.10	1.213
429.33	0.804
429.56	-1.061
429.79	-1.469
430.03	-1.779
430.26	-0.299
430.49	-1.633
430.72	-1.885
430.95	-1.769
431.18	-0.709
431.42	-0.892
431.65	0.089
431.88	-0.720
432.11	-0.205
432.34	0.363
432.57	-0.587
432.80	-2.738
433.04	-1.418
433.27	0.363
433.50	1.368
433.73	0.462
433.96	-0.323
434.19	0.309
434.42	-1.226
434.65	0.498
434.89	-0.505
435.12	-0.361
435.35	0.482
435.58	0.101
435.81	-1.186
436.04	-0.225
436.27	-0.071
436.50	0.293
436.74	-0.259
436.97	-0.530
437.20	-1.063
437.43	0.047
437.66	-0.136
437.89	-1.014
438.12	-2.122
438.35	-1.786
438.58	-1.269
438.82	-0.535
439.05	-0.272
439.28	0.236
439.51	-0.185
439.74	-0.187
439.97	-0.518
440.20	-0.793
440.43	0.000
440.66	-0.595
440.89	-0.096
441.12	-0.246
441.36	-0.130
441.59	-0.321
441.82	0.122
442.05	-0.054
442.28	-0.910
442.51	0.055
442.74	0.139
442.97	0.312
443.20	-0.163
443.43	-0.123
443.66	-0.115
443.89	-0.662
444.13	-0.548
444.36	-0.618
444.59	0.049
444.82	-0.647
445.05	-0.482
445.28	-0.077
445.51	-0.193
445.74	-0.189
445.97	-0.663
446.20	0.076
446.43	-0.212
446.66	-0.855
446.89	-0.609
447.12	-0.045
447.35	-0.148
447.58	0.384
447.81	1.102
448.05	0.142
448.28	0.419
448.51	1.022
448.74	0.327
448.97	0.014
449.20	-0.370
449.43	-0.393
449.66	-0.737
449.89	0.206
450.12	-0.481
450.35	-0.404
450.58	-0.107
450.81	0.188
451.04	-0.085
451.27	-0.610
451.50	-0.457
451.73	-0.290
451.96	-0.247
452.19	0.139
452.42	0.198
452.65	0.177
452.88	-0.617
453.11	-0.072
453.34	-0.849
453.57	-0.618
453.80	0.123
454.03	-0.710
454.26	0.367
454.49	0.222
454.72	-0.401
454.95	0.355
455.18	-0.089
455.41	0.114
455.64	-0.055
455.87	0.157
456.10	0.142
456.33	0.699
456.56	-0.313
456.79	-0.266
457.02	-0.345
457.25	0.195
457.48	-0.465
457.71	-0.439
457.94	-0.240
458.17	-0.146
458.40	-0.110
458.63	0.020
458.86	0.125
459.09	0.199
459.32	-0.243
459.55	-0.064
459.78	-0.493
460.01	0.387
460.24	0.277
460.47	-0.110
460.70	-0.066
460.93	-0.140
461.16	-0.412
461.39	-0.542
461.62	-0.787
461.85	-0.420
462.08	-0.402
462.31	0.204
462.54	-0.084
462.77	-0.264
463.00	-0.093
463.22	-0.058
463.45	-0.254
463.68	-0.096
463.91	0.070
464.14	-0.094
464.37	-0.545
464.60	0.237
464.83	0.138
465.06	-0.370
465.29	0.037
465.52	-0.081
465.75	-0.015
465.98	0.329
466.21	-0.211
466.44	-0.028
466.67	0.260
466.90	0.061
467.12	-0.212
467.35	-0.332
467.58	-0.286
467.81	0.186
468.04	-0.007
468.27	-0.085
468.50	0.187
468.73	-0.248
468.96	0.284
469.19	-0.259
469.42	-0.093
469.65	-0.579
469.87	-0.368
470.10	0.102
470.33	-0.210
470.56	0.017
470.79	-0.382
471.02	-0.074
471.25	-0.005
471.48	-0.166
471.71	-0.074
471.94	-0.075
472.17	-0.274
472.39	-0.051
472.62	0.185
472.85	0.306
473.08	-0.111
473.31	-0.240
473.54	-0.121
473.77	0.173
474.00	0.135
474.23	0.076
474.45	-0.133
474.68	-0.255
474.91	-0.231
475.14	-0.139
475.37	-0.184
475.60	-0.093
475.83	-0.061
476.06	-0.285
476.28	-0.102
476.51	-0.210
476.74	-0.067
476.97	0.033
477.20	-0.127
477.43	0.016
477.66	-0.065
477.88	-0.172
478.11	0.023
478.34	0.050
478.57	-0.030
478.80	-0.088
479.03	-0.083
479.26	-0.286
479.48	0.103
479.71	-0.227
479.94	-0.036
480.17	-0.011
480.40	-0.131
480.63	-0.108
480.86	-0.196
481.08	-0.114
481.31	0.115
481.54	0.047
481.77	-0.102
482.00	-0.097
482.23	-0.197
482.45	-0.068
482.68	-0.068
482.91	-0.160
483.14	-0.148
483.37	0.009
483.60	-0.188
483.82	-0.056
484.05	-0.119
484.28	-0.114
484.51	-0.164
484.74	-0.096
484.96	0.012
485.19	0.012
485.42	-0.026
485.65	-0.063
485.88	-0.144
486.10	-0.121
486.33	-0.114
486.56	-0.003
486.79	-0.014
487.02	-0.073
487.25	-0.200
487.47	-0.208
487.70	-0.029
487.93	-0.016
488.16	-0.050
488.39	-0.164
488.61	-0.013
488.84	-0.015
489.07	-0.041
489.30	-0.017
489.52	-0.045
489.75	-0.151
489.98	0.010
490.21	-0.002
490.44	-0.051
490.66	-0.106
490.89	-0.058
491.12	-0.024
491.35	-0.021
491.57	-0.093
491.80	-0.179
492.03	-0.123
492.26	-0.039
492.49	-0.086
492.71	0.081
492.94	-0.016
493.17	-0.060
493.40	-0.170
493.62	-0.131
493.85	-0.085
494.08	-0.013
494.31	0.011
494.53	-0.086
494.76	-0.049
494.99	0.101
495.22	-0.156
495.44	-0.044
495.67	-0.033
495.90	-0.051
496.13	-0.014
496.35	-0.096
496.58	-0.016
496.81	-0.119
497.04	-0.116
497.26	-0.097
497.49	-0.075
497.72	-0.012
497.95	-0.008
498.17	-0.112
498.40	-0.010
498.63	0.021
498.85	0.034
499.08	-0.079
499.31	0.030
499.54	-0.046
499.76	-0.075
499.99	-0.067
500.22	-0.098
500.44	-0.206
500.67	-0.181
500.90	-0.071
501.13	-0.011
501.35	0.002
501.58	-0.021
501.81	0.007
502.03	-0.003
502.26	-0.053
502.49	-0.063
502.72	-0.044
502.94	-0.035
503.17	0.000
503.40	0.032
503.62	-0.115
503.85	-0.046
504.08	0.007
504.30	-0.026
504.53	-0.078
504.76	-0.063
504.98	-0.058
505.21	-0.110
505.44	-0.031
505.67	0.148
505.89	0.041
506.12	-0.041
506.35	-0.045
506.57	-0.092
506.80	-0.051
507.03	-0.111
507.25	-0.102
507.48	-0.035
507.71	-0.011
507.93	-0.026
508.16	-0.051
508.39	-0.040
508.61	-0.043
508.84	-0.015
509.07	-0.027
509.29	-0.053
509.52	-0.076
509.75	-0.063
509.97	-0.004
510.20	0.030
510.43	-0.085
510.65	0.034
510.88	-0.080
511.10	0.016
511.33	-0.023
511.56	-0.079
511.78	0.017
512.01	-0.038
512.24	0.045
512.46	-0.003
512.69	0.052
512.92	0.018
513.14	-0.046
513.37	-0.081
513.59	-0.050
513.82	0.008
514.05	-0.007
514.27	-0.025
514.50	-0.106
514.73	-0.090
514.95	-0.034
515.18	0.022
515.40	0.004
515.63	0.032
515.86	-0.042
516.08	-0.056
516.31	-0.090
516.54	0.015
516.76	-0.024
516.99	0.064
517.21	0.027
517.44	-0.018
517.67	-0.001
517.89	-0.008
518.12	-0.010
518.34	-0.052
518.57	-0.005
518.80	-0.049
519.02	-0.009
519.25	-0.029
519.47	-0.045
519.70	-0.055
519.93	-0.042
520.15	0.063
520.38	0.037
520.60	0.028
520.83	-0.013
521.05	0.005
521.28	0.007
521.51	-0.021
521.73	0.034
521.96	-0.008
522.18	-0.035
522.41	0.030
522.63	-0.045
522.86	-0.073
523.09	0.001
523.31	0.049
523.54	-0.008
523.76	0.029
523.99	-0.024
524.21	-0.016
524.44	0.044
524.67	-0.015
524.89	-0.032
525.12	-0.014
525.34	-0.047
525.57	-0.050
525.79	-0.066
526.02	-0.074
526.24	-0.047
526.47	-0.034
526.69	-0.044
526.92	-0.055
527.15	0.031
527.37	0.023
527.60	-0.014
527.82	0.023
528.05	-0.004
528.27	-0.020
528.50	-0.023
528.72	-0.026
528.95	-0.024
529.17	-0.002
529.40	-0.041
529.62	-0.005
529.85	-0.021
530.07	-0.032
530.30	-0.001
530.52	-0.016
530.75	-0.012
530.98	0.000
531.20	0.036
531.43	-0.065
531.65	-0.047
531.88	-0.003
532.10	-0.073
532.33	-0.044
532.55	0.006
532.78	-0.010
533.00	0.004
533.23	-0.079
533.45	0.025
533.68	0.026
533.90	-0.019
534.13	-0.034
534.35	-0.021
534.58	-0.011
534.80	-0.011
535.03	-0.032
535.25	-0.003
535.47	-0.018
535.70	-0.008
535.92	0.009
536.15	-0.014
536.37	-0.013
536.60	0.019
536.82	-0.009
537.05	-0.064
537.27	-0.017
537.50	-0.028
537.72	-0.057
537.95	-0.031
538.17	0.037
538.40	0.001
538.62	-0.008
538.85	0.006
539.07	-0.032
539.29	-0.019
539.52	0.024
539.74	-0.044
539.97	-0.034
540.19	-0.020
540.42	-0.026
540.64	-0.058
540.87	-0.013
541.09	-0.004
541.32	-0.022
541.54	-0.025
541.76	-0.026
541.99	-0.024
542.21	-0.016
542.44	0.010
542.66	-0.024
542.89	-0.022
543.11	-0.013
543.33	-0.013
543.56	-0.015
543.78	-0.032
544.01	0.005
544.23	-0.011
544.46	-0.014
544.68	0.008
544.90	-0.003
545.13	-0.007
545.35	0.021
545.58	0.002
545.80	0.023
546.03	0.022
546.25	-0.040
546.47	0.009
546.70	-0.008
546.92	0.006
547.15	-0.024
547.37	-0.034
547.59	0.024
547.82	0.048
548.04	0.033
548.27	-0.017
548.49	0.031
548.71	-0.039
548.94	0.007
549.16	0.002
549.39	-0.013
549.61	-0.001
549.83	-0.020
550.06	-0.003
550.28	0.009
550.50	-0.010
550.73	-0.013
550.95	0.001
551.18	-0.008
551.40	-0.015
551.62	-0.003
551.85	-0.030
552.07	-0.030
552.29	0.016
552.52	0.011
552.74	0.003
552.97	-0.017
553.19	0.019
553.41	-0.010
553.64	-0.006
553.86	-0.023
554.08	-0.004
554.31	-0.034
554.53	-0.054
554.75	-0.038
554.98	-0.023
555.20	0.024
555.42	0.022
555.65	-0.017
555.87	-0.051
556.10	0.036
556.32	0.006
556.54	-0.031
556.77	-0.005
556.99	-0.014
557.21	-0.053
557.44	-0.034
557.66	-0.016
557.88	0.028
558.11	0.012
558.33	0.017
558.55	-0.014
558.78	-0.050
559.00	-0.013
559.22	-0.011
559.44	0.001
559.67	-0.009
559.89	0.003
560.11	-0.015
560.34	-0.024
560.56	0.017
560.78	0.005
561.01	0.013
561.23	-0.029
561.45	-0.001
561.68	-0.044
561.90	-0.009
562.12	-0.048
562.35	0.003
562.57	0.023
562.79	0.019
563.01	0.001
563.24	0.010
563.46	-0.001
563.68	0.010
563.91	0.023
564.13	0.010
564.35	0.011
564.57	0.017
564.80	0.020
565.02	-0.019
565.24	-0.032
565.47	0.026
565.69	0.041
565.91	-0.009
566.13	0.051
566.36	0.026
566.58	0.022
566.80	0.001
567.02	0.010
567.25	0.011
567.47	0.049
567.69	0.007
567.92	-0.020
568.14	-0.001
568.36	0.015
568.58	0.013
568.81	0.015
569.03	-0.007
569.25	-0.023
569.47	0.020
569.70	0.007
569.92	0.041
570.14	0.034
570.36	0.000
570.59	0.031
570.81	0.037
571.03	-0.024
571.25	0.012
571.47	-0.002
571.70	0.029
571.92	-0.003
572.14	0.004
572.36	0.009
572.59	-0.019
572.81	0.014
573.03	-0.004
573.25	-0.014
573.48	0.009
573.70	-0.010
573.92	0.025
574.14	-0.001
574.36	-0.001
574.59	-0.004
574.81	-0.012
575.03	0.001
575.25	0.008
575.47	0.042
575.70	0.017
575.92	-0.020
576.14	-0.016
576.36	0.029
576.59	0.009
576.81	-0.009
577.03	-0.001
577.25	-0.005
577.47	0.022
577.69	0.006
577.92	-0.015
578.14	0.037
578.36	0.018
578.58	0.023
578.80	0.018
579.03	0.025
579.25	0.014
579.47	0.026
579.69	-0.012
579.91	0.026
580.14	-0.009
580.36	0.023
580.58	0.020
580.80	0.013
581.02	-0.002
581.24	0.008
581.47	0.020
581.69	0.013
581.91	0.002
582.13	0.018
582.35	0.024
582.57	0.012
582.79	-0.009
583.02	0.012
583.24	0.004
583.46	0.021
583.68	0.022
583.90	-0.004
584.12	0.014
584.35	0.021
584.57	0.003
584.79	-0.002
585.01	-0.001
585.23	-0.035
585.45	0.017
585.67	0.025
585.90	-0.003
586.12	0.022
586.34	0.018
586.56	0.006
586.78	0.027
587.00	0.033
587.22	0.015
587.44	0.023
587.67	0.029
587.89	0.022
588.11	-0.004
588.33	0.030
588.55	0.013
588.77	0.013
588.99	0.015
589.21	-0.009
589.43	0.025
589.66	0.021
589.88	0.033
590.10	0.008
590.32	-0.008
590.54	0.008
590.76	0.027
590.98	-0.002
591.20	0.004
591.42	0.039
591.64	-0.017
591.87	0.011
592.09	0.022
592.31	0.031
592.53	0.015
592.75	0.002
592.97	0.022
593.19	0.014
593.41	0.023
593.63	-0.017
593.85	0.028
594.07	-0.001
594.29	0.010
594.52	0.021
594.74	0.018
594.96	0.026
595.18	0.026
595.40	0.001
595.62	0.037
595.84	0.019
596.06	0.022
596.28	0.008
596.50	0.006
596.72	0.021
596.94	0.027
597.16	0.025
597.38	0.016
597.60	0.049
597.82	0.047
598.05	0.028
598.27	0.013
598.49	0.009
598.71	0.033
598.93	0.044
599.15	0.038
599.37	0.041
599.59	0.028
599.81	0.041
600.03	0.030
600.25	0.019
600.47	0.049
600.69	0.053
600.91	0.031
601.13	0.020
601.35	0.054
601.57	0.071
601.79	0.034
602.01	0.036
602.23	0.037
602.45	0.053
602.67	0.048
602.89	0.097
603.11	0.077
603.33	0.084
603.55	0.087
603.77	0.093
603.99	0.154
604.21	0.150
604.43	0.200
604.65	0.223
604.87	0.236
605.09	0.282
605.31	0.327
605.53	0.389
605.75	0.433
605.97	0.480
606.19	0.535
606.41	0.634
606.63	0.699
606.85	0.784
607.07	0.900
607.29	1.001
607.51	1.105
607.73	1.213
607.95	1.315
608.17	1.499
608.39	1.640
608.61	1.726
608.83	1.857
609.05	2.060
609.27	2.221
609.49	2.395
609.71	2.537
609.93	2.730
610.15	2.950
610.37	3.102
610.59	3.341
610.81	3.491
611.03	3.659
611.24	3.863
611.46	4.068
611.68	4.290
611.90	4.519
612.12	4.672
612.34	4.923
612.56	5.106
612.78	5.349
613.00	5.552
613.22	5.790
613.44	5.997
613.66	6.189
613.88	6.457
614.10	6.660
614.32	6.858
614.54	7.093
614.75	7.300
614.97	7.488
615.19	7.673
615.41	7.861
615.63	8.068
615.85	8.230
616.07	8.397
616.29	8.589
616.51	8.802
616.73	8.987
616.95	9.236
617.17	9.386
617.38	9.550
617.60	9.743
617.82	9.926
618.04	10.116
618.26	10.357
618.48	10.545
618.70	10.790
618.92	10.933
619.14	11.080
619.36	11.242
619.57	11.290
619.79	11.483
620.01	11.717
620.23	11.818
620.45	11.946
620.67	12.016
620.89	12.150
621.11	12.296
621.33	12.510
621.54	12.635
621.76	12.762
621.98	12.859
622.20	12.938
622.42	12.991
622.64	13.143
622.86	13.316
623.07	13.504
623.29	13.666
623.51	13.780
623.73	13.842
623.95	13.855
624.17	13.953
624.39	14.049
624.60	14.139
624.82	14.237
625.04	14.362
625.26	14.548
625.48	14.738
625.70	14.863
625.92	14.943
626.13	15.021
626.35	15.109
626.57	15.283
626.79	15.430
627.01	15.560
627.23	15.652
627.44	15.808
627.66	15.830
627.88	15.865
628.10	15.939
628.32	15.968
628.54	16.023
628.75	16.141
628.97	16.232
629.19	16.525
629.41	16.541
629.63	16.571
629.84	16.716
630.06	16.759
630.28	16.870
630.50	16.959
630.72	17.104
630.94	17.170
631.15	17.262
631.37	17.301
631.59	17.310
631.81	17.399
632.03	17.460
632.24	17.542
632.46	17.620
632.68	17.740
632.90	17.950
633.11	18.103
633.33	18.220
633.55	18.258
633.77	18.259
633.99	18.244
634.20	18.399
634.42	18.596
634.64	18.631
634.86	18.681
635.08	18.790
635.29	18.879
635.51	18.987
635.73	19.016
635.95	19.029
636.16	19.058
636.38	19.154
636.60	19.231
636.82	19.331
637.03	19.428
637.25	19.400
637.47	19.345
637.69	19.394
637.90	19.441
638.12	19.560
638.34	19.670
638.56	19.751
638.77	19.765
638.99	19.828
639.21	19.968
639.43	20.061
639.64	20.183
639.86	20.355
640.08	20.508
640.30	20.515
640.51	20.653
640.73	20.737
640.95	20.774
641.17	20.952
641.38	21.156
641.60	21.146
641.82	21.293
642.03	21.325
642.25	21.296
642.47	21.260
642.69	21.290
642.90	21.307
643.12	21.351
643.34	21.513
643.55	21.619
643.77	21.791
643.99	22.011
644.21	22.050
644.42	22.048
644.64	21.956
644.86	21.853
645.07	21.926
645.29	21.945
645.51	22.118
645.73	22.200
645.94	22.381
646.16	22.471
646.38	22.427
646.59	22.473
646.81	22.580
647.03	22.670
647.24	22.744
647.46	22.858
647.68	22.793
647.89	22.842
648.11	23.000
648.33	23.147
648.54	23.369
648.76	23.502
648.98	23.634
649.19	23.806
649.41	23.800
649.63	23.758
649.84	23.725
650.06	23.720
650.28	23.697
650.49	23.820
650.71	23.852
650.93	23.938
651.14	24.078
651.36	24.107
651.58	24.185
651.79	24.278
652.01	24.217
652.23	24.395
652.44	24.498
652.66	24.653
652.88	24.789
653.09	24.875
653.31	24.832
653.52	24.874
653.74	25.030
653.96	25.298
654.17	25.369
654.39	25.565
654.61	25.764
654.82	25.783
655.04	25.730
655.25	25.679
655.47	25.645
655.69	25.580
655.90	25.666
656.12	25.668
656.34	25.837
656.55	25.980
656.77	25.947
656.98	26.021
657.20	26.069
657.42	26.212
657.63	26.287
657.85	26.351
658.06	26.444
658.28	26.574
658.50	26.544
658.71	26.582
658.93	26.554
659.14	26.671
659.36	26.844
659.58	26.891
659.79	26.947
660.01	26.936
660.22	26.902
660.44	26.959
660.65	26.990
660.87	27.056
661.09	27.294
661.30	27.461
661.52	27.580
661.73	27.677
661.95	27.749
662.16	27.643
662.38	27.755
662.60	27.719
662.81	27.878
663.03	28.061
663.24	28.183
663.46	28.406
663.67	28.596
663.89	28.584
664.11	28.602
664.32	28.624
664.54	28.605
664.75	28.479
664.97	28.551
665.18	28.778
665.40	28.764
665.61	28.703
665.83	28.673
666.04	28.757
666.26	28.911
666.48	29.157
666.69	29.417
666.91	29.515
667.12	29.575
667.34	29.678
667.55	29.645
667.77	29.595
667.98	29.635
668.20	29.748
668.41	29.881
668.63	30.079
668.84	30.194
669.06	30.214
669.27	30.356
669.49	30.486
669.70	30.490
669.92	30.465
670.13	30.476
