OOIBase32 Version 2.0.1.4 Data File
++++++++++++++++++++++++++++++++++++
Date: 11-03-2025, 10:23:02
User: Valued Ocean Optics Customer
Spectrometer Serial Number: HR2B216
Spectrometer Channel: Master
Integration Time (msec): 5
Spectra Averaged: 80
Boxcar Smoothing: 0
Correct for Electrical Dark: Disabled
Time Normalized: Disabled
Dual-beam Reference: Disabled
Reference Channel: Master
Temperature: Not acquired
Spectrometer Type: S2000
ADC Type: HR2000
Number of Pixels in File: 2048
Graph Title: 
>>>>>Begin Spectral Data<<<<<
373.12	0.000
373.35	252.459
373.59	295.083
373.82	804.178
374.06	576.668
374.29	-1862.531
374.53	542.425
374.76	-449.997
375.00	413.954
375.23	411.628
375.47	337.313
375.70	1409.122
375.94	791.659
376.17	621.214
376.40	1061.117
376.64	2187.533
376.87	-1029.441
377.11	-1225.017
377.34	-5432.445
377.58	377.084
377.81	558.069
378.05	632.000
378.28	505.715
378.52	814.999
378.75	451.729
378.99	658.614
379.22	-8999.451
379.45	-226.865
379.69	-167.741
379.92	-345.453
380.16	-371.426
380.39	-201.614
380.63	-147.900
380.86	-200.000
381.10	-90.226
381.33	-115.178
381.56	-116.912
381.80	-99.300
382.03	-97.041
382.27	-142.857
382.50	-109.016
382.74	-161.321
382.97	-178.947
383.21	-182.652
383.44	-75.163
383.67	-160.714
383.91	-168.000
384.14	-224.001
384.38	-110.416
384.61	-136.842
384.84	-98.765
385.08	-133.824
385.31	-203.450
385.55	-142.748
385.78	-204.275
386.02	-115.730
386.25	-61.674
386.48	-86.188
386.72	-118.667
386.95	-69.588
387.19	-119.620
387.42	-121.918
387.65	-102.597
387.89	-155.556
388.12	-74.627
388.36	-71.282
388.59	-108.465
388.82	-69.312
389.06	-42.460
389.29	-67.961
389.53	-92.021
389.76	-80.358
389.99	-161.487
390.23	-74.886
390.46	-73.452
390.70	-52.610
390.93	-54.231
391.16	-76.190
391.40	-78.355
391.63	-45.946
391.87	-70.723
392.10	-56.627
392.33	-47.811
392.57	-40.823
392.80	-64.435
393.03	-79.435
393.27	-45.545
393.50	-46.392
393.74	-35.254
393.97	-38.568
394.20	-57.912
394.44	-57.643
394.67	-67.347
394.90	-63.810
395.14	-53.135
395.37	-66.906
395.60	-53.943
395.84	-51.499
396.07	-39.094
396.31	-49.858
396.54	-43.170
396.77	-48.677
397.01	-48.774
397.24	-42.670
397.47	-51.058
397.71	-35.321
397.94	-50.807
398.17	-42.716
398.41	-55.457
398.64	-50.131
398.87	-27.941
399.11	-32.294
399.34	-32.189
399.57	-37.500
399.81	-34.009
400.04	-31.891
400.27	-32.043
400.51	-32.265
400.74	-32.377
400.97	-32.677
401.21	-31.641
401.44	-24.855
401.67	-31.683
401.91	-23.551
402.14	-28.016
402.37	-29.511
402.61	-26.993
402.84	-22.628
403.07	-9.948
403.31	-16.252
403.54	-22.020
403.77	-30.994
404.00	-27.509
404.24	-16.473
404.47	-27.586
404.70	-29.511
404.94	-27.055
405.17	-14.286
405.40	-17.647
405.64	-22.756
405.87	-25.478
406.10	-25.316
406.34	-22.404
406.57	-19.077
406.80	-26.457
407.03	-19.827
407.27	-32.813
407.50	-18.338
407.73	-20.304
407.97	-22.686
408.20	-22.485
408.43	-15.513
408.66	-17.109
408.90	-20.220
409.13	-15.980
409.36	-15.889
409.60	-22.568
409.83	-22.446
410.06	-12.956
410.29	-13.155
410.53	-14.581
410.76	-19.431
410.99	-17.045
411.22	-14.629
411.46	-17.584
411.69	-15.254
411.92	-8.946
412.16	-19.472
412.39	-18.829
412.62	-17.808
412.85	-13.573
413.09	-8.192
413.32	-14.555
413.55	-11.055
413.78	-10.470
414.02	-12.759
414.25	-15.028
414.48	-11.892
414.71	-14.315
414.95	-9.847
415.18	-13.442
415.41	-11.786
415.64	-12.948
415.88	-11.389
416.11	-5.068
416.34	-7.968
416.57	-13.475
416.80	-8.908
417.04	-15.098
417.27	-13.820
417.50	-9.590
417.73	-13.664
417.97	-9.936
418.20	-5.702
418.43	-6.292
418.66	-8.772
418.90	-10.171
419.13	-7.521
419.36	-6.291
419.59	-6.433
419.82	-3.684
420.06	0.275
420.29	-6.873
420.52	-3.668
420.75	-8.179
420.98	-8.098
421.22	-9.061
421.45	-7.138
421.68	-8.769
421.91	-6.638
422.15	-7.607
422.38	-9.074
422.61	-6.524
422.84	-3.333
423.07	-5.352
423.31	-7.600
423.54	-3.980
423.77	-3.794
424.00	-6.283
424.23	-6.130
424.46	-4.550
424.70	-5.435
424.93	-4.744
425.16	-4.948
425.39	-7.587
425.62	-1.091
425.86	-4.024
426.09	-8.507
426.32	-3.116
426.55	-4.102
426.78	-4.167
427.01	-5.914
427.25	-2.151
427.48	-3.515
427.71	-5.127
427.94	-4.646
428.17	-2.960
428.40	-1.817
428.64	-2.422
428.87	-3.615
429.10	-3.395
429.33	-3.389
429.56	-2.128
429.79	-1.882
430.03	-3.778
430.26	-3.591
430.49	-1.572
430.72	-1.901
430.95	-2.322
431.18	-3.514
431.42	-2.494
431.65	-3.766
431.88	-0.648
432.11	-2.140
432.34	-2.933
432.57	-1.898
432.80	-0.217
433.04	-1.085
433.27	-0.561
433.50	-1.044
433.73	-0.170
433.96	-4.017
434.19	-1.081
434.42	-0.096
434.65	-1.615
434.89	-1.661
435.12	0.495
435.35	0.872
435.58	-1.089
435.81	-0.251
436.04	-1.463
436.27	1.122
436.50	-0.542
436.74	-2.366
436.97	-0.483
437.20	-1.083
437.43	-1.590
437.66	-0.923
437.89	-0.246
438.12	0.691
438.35	-1.039
438.58	-0.951
438.82	-0.421
439.05	0.501
439.28	-0.894
439.51	-1.126
439.74	-0.205
439.97	1.110
440.20	2.134
440.43	-1.486
440.66	1.125
440.89	0.213
441.12	1.676
441.36	0.923
441.59	0.283
441.82	0.552
442.05	0.756
442.28	0.951
442.51	0.134
442.74	0.491
442.97	1.605
443.20	0.494
443.43	-0.905
443.66	1.488
443.89	-0.059
444.13	0.085
444.36	0.484
444.59	0.569
444.82	0.746
445.05	0.316
445.28	0.662
445.51	1.345
445.74	1.921
445.97	1.559
446.20	2.219
446.43	1.661
446.66	1.557
446.89	1.988
447.12	1.185
447.35	1.532
447.58	2.353
447.81	2.199
448.05	1.901
448.28	1.932
448.51	2.239
448.74	2.687
448.97	2.577
449.20	2.293
449.43	1.673
449.66	1.230
449.89	1.955
450.12	1.769
450.35	1.427
450.58	1.977
450.81	1.373
451.04	2.667
451.27	1.949
451.50	1.635
451.73	1.946
451.96	1.571
452.19	1.962
452.42	1.680
452.65	2.307
452.88	2.012
453.11	2.866
453.34	2.837
453.57	2.844
453.80	2.096
454.03	2.502
454.26	3.277
454.49	2.016
454.72	2.095
454.95	2.389
455.18	2.192
455.41	2.689
455.64	2.247
455.87	1.953
456.10	3.142
456.33	2.708
456.56	3.732
456.79	2.890
457.02	2.207
457.25	3.333
457.48	3.191
457.71	3.293
457.94	2.767
458.17	3.177
458.40	3.128
458.63	2.367
458.86	3.166
459.09	2.934
459.32	2.585
459.55	3.041
459.78	3.028
460.01	3.316
460.24	3.166
460.47	2.965
460.70	2.807
460.93	2.516
461.16	3.735
461.39	3.587
461.62	3.519
461.85	3.329
462.08	3.820
462.31	3.664
462.54	3.410
462.77	2.929
463.00	3.051
463.22	3.431
463.45	3.476
463.68	3.692
463.91	3.022
464.14	3.229
464.37	2.872
464.60	2.911
464.83	3.458
465.06	3.656
465.29	3.495
465.52	3.608
465.75	3.359
465.98	3.552
466.21	3.890
466.44	3.746
466.67	3.925
466.90	3.498
467.12	3.640
467.35	4.291
467.58	3.809
467.81	3.261
468.04	3.613
468.27	3.731
468.50	3.640
468.73	3.427
468.96	4.007
469.19	3.843
469.42	4.172
469.65	3.314
469.87	3.873
470.10	3.487
470.33	4.004
470.56	4.300
470.79	3.517
471.02	4.133
471.25	4.248
471.48	3.988
471.71	4.131
471.94	4.130
472.17	3.935
472.39	3.711
472.62	3.766
472.85	3.958
473.08	3.930
473.31	3.973
473.54	4.129
473.77	4.077
474.00	4.232
474.23	4.510
474.45	4.340
474.68	3.924
474.91	4.025
475.14	4.073
475.37	4.038
475.60	4.251
475.83	4.413
476.06	4.227
476.28	3.837
476.51	4.061
476.74	4.196
476.97	4.070
477.20	4.282
477.43	4.232
477.66	4.334
477.88	3.982
478.11	4.361
478.34	4.398
478.57	4.281
478.80	4.371
479.03	4.630
479.26	4.538
479.48	4.299
479.71	4.442
479.94	4.409
480.17	4.340
480.40	4.386
480.63	4.390
480.86	4.366
481.08	4.551
481.31	4.411
481.54	4.553
481.77	4.605
482.00	4.427
482.23	4.537
482.45	4.177
482.68	4.539
482.91	4.588
483.14	4.480
483.37	4.612
483.60	4.587
483.82	4.614
484.05	4.495
484.28	4.605
484.51	4.535
484.74	4.586
484.96	4.514
485.19	4.538
485.42	4.436
485.65	4.693
485.88	4.532
486.10	4.467
486.33	4.394
486.56	4.501
486.79	4.781
487.02	4.852
487.25	4.770
487.47	4.474
487.70	4.532
487.93	4.531
488.16	4.459
488.39	4.548
488.61	4.486
488.84	4.454
489.07	4.657
489.30	4.521
489.52	4.798
489.75	4.695
489.98	4.436
490.21	4.567
490.44	4.558
490.66	4.577
490.89	4.795
491.12	4.913
491.35	4.684
491.57	4.618
491.80	4.590
492.03	4.486
492.26	4.614
492.49	4.676
492.71	4.645
492.94	4.754
493.17	4.789
493.40	4.741
493.62	4.662
493.85	4.820
494.08	4.758
494.31	4.745
494.53	4.754
494.76	4.794
494.99	4.623
495.22	4.698
495.44	4.918
495.67	4.796
495.90	4.806
496.13	4.695
496.35	4.706
496.58	4.717
496.81	4.677
497.04	4.518
497.26	4.613
497.49	4.584
497.72	4.600
497.95	4.669
498.17	4.706
498.40	4.670
498.63	4.849
498.85	4.792
499.08	4.672
499.31	4.716
499.54	4.709
499.76	4.755
499.99	4.749
500.22	4.802
500.44	4.729
500.67	4.878
500.90	4.946
501.13	4.803
501.35	4.763
501.58	4.749
501.81	4.852
502.03	4.717
502.26	4.653
502.49	4.497
502.72	4.562
502.94	4.859
503.17	4.858
503.40	4.799
503.62	4.758
503.85	4.735
504.08	4.704
504.30	4.824
504.53	4.741
504.76	4.864
504.98	4.853
505.21	4.859
505.44	4.952
505.67	5.084
505.89	4.938
506.12	5.010
506.35	4.991
506.57	5.140
506.80	5.044
507.03	5.024
507.25	5.019
507.48	4.878
507.71	4.915
507.93	4.791
508.16	4.912
508.39	4.923
508.61	4.944
508.84	4.781
509.07	4.833
509.29	4.933
509.52	4.874
509.75	4.852
509.97	4.805
510.20	4.952
510.43	5.014
510.65	4.920
510.88	4.987
511.10	5.035
511.33	4.993
511.56	4.858
511.78	4.978
512.01	4.801
512.24	4.859
512.46	4.899
512.69	4.839
512.92	4.737
513.14	4.744
513.37	4.722
513.59	4.846
513.82	5.018
514.05	5.095
514.27	4.994
514.50	5.056
514.73	4.877
514.95	4.860
515.18	4.906
515.40	4.932
515.63	4.986
515.86	4.976
516.08	4.988
516.31	4.984
516.54	4.987
516.76	5.062
516.99	4.943
517.21	4.971
517.44	4.930
517.67	4.971
517.89	4.870
518.12	5.080
518.34	4.916
518.57	4.739
518.80	4.712
519.02	4.769
519.25	4.850
519.47	4.851
519.70	4.996
519.93	5.007
520.15	5.005
520.38	5.010
520.60	5.022
520.83	5.052
521.05	5.014
521.28	5.024
521.51	5.042
521.73	5.097
521.96	5.096
522.18	5.026
522.41	4.895
522.63	4.833
522.86	4.868
523.09	4.875
523.31	4.805
523.54	4.828
523.76	4.914
523.99	4.818
524.21	4.803
524.44	4.836
524.67	4.823
524.89	4.804
525.12	4.874
525.34	4.743
525.57	4.741
525.79	4.794
526.02	4.866
526.24	4.742
526.47	4.842
526.69	4.678
526.92	4.691
527.15	4.670
527.37	4.658
527.60	4.585
527.82	4.694
528.05	4.772
528.27	4.701
528.50	4.905
528.72	4.871
528.95	4.774
529.17	4.933
529.40	4.840
529.62	4.793
529.85	4.833
530.07	4.777
530.30	4.777
530.52	4.898
530.75	4.896
530.98	4.926
531.20	4.799
531.43	4.797
531.65	4.778
531.88	4.791
532.10	4.959
532.33	4.955
532.55	4.935
532.78	4.982
533.00	4.927
533.23	4.895
533.45	4.895
533.68	5.002
533.90	4.851
534.13	4.937
534.35	4.859
534.58	4.823
534.80	4.810
535.03	4.883
535.25	4.839
535.47	4.756
535.70	4.905
535.92	5.007
536.15	5.125
536.37	5.164
536.60	5.205
536.82	5.239
537.05	5.282
537.27	5.261
537.50	5.247
537.72	5.192
537.95	5.174
538.17	5.205
538.40	5.292
538.62	5.160
538.85	5.126
539.07	5.091
539.29	5.049
539.52	5.012
539.74	5.029
539.97	5.062
540.19	5.072
540.42	5.005
540.64	4.880
540.87	4.773
541.09	4.714
541.32	4.865
541.54	4.810
541.76	4.777
541.99	4.802
542.21	4.767
542.44	4.868
542.66	4.990
542.89	5.029
543.11	5.090
543.33	5.116
543.56	4.987
543.78	5.039
544.01	5.046
544.23	5.007
544.46	4.950
544.68	4.974
544.90	5.028
545.13	5.048
545.35	4.967
545.58	4.949
545.80	4.872
546.03	4.805
546.25	4.795
546.47	4.786
546.70	4.857
546.92	4.920
547.15	5.013
547.37	4.992
547.59	4.923
547.82	4.854
548.04	4.848
548.27	4.839
548.49	4.870
548.71	4.803
548.94	4.803
549.16	4.799
549.39	4.765
549.61	4.770
549.83	4.796
550.06	4.833
550.28	4.851
550.50	4.853
550.73	4.783
550.95	4.719
551.18	4.738
551.40	4.687
551.62	4.811
551.85	4.734
552.07	4.732
552.29	4.783
552.52	4.845
552.74	4.907
552.97	4.944
553.19	4.884
553.41	4.878
553.64	4.928
553.86	4.909
554.08	4.852
554.31	4.796
554.53	4.849
554.75	4.725
554.98	4.643
555.20	4.682
555.42	4.704
555.65	4.781
555.87	4.741
556.10	4.821
556.32	4.912
556.54	4.928
556.77	5.019
556.99	5.037
557.21	5.031
557.44	5.017
557.66	5.034
557.88	4.974
558.11	4.935
558.33	4.980
558.55	4.938
558.78	4.963
559.00	4.970
559.22	4.887
559.44	4.818
559.67	4.767
559.89	4.761
560.11	4.741
560.34	4.660
560.56	4.711
560.78	4.758
561.01	4.812
561.23	4.842
561.45	4.816
561.68	4.768
561.90	4.782
562.12	4.899
562.35	4.893
562.57	4.894
562.79	4.771
563.01	4.786
563.24	4.765
563.46	4.760
563.68	4.793
563.91	4.753
564.13	4.753
564.35	4.722
564.57	4.751
564.80	4.819
565.02	4.883
565.24	4.880
565.47	4.879
565.69	4.912
565.91	4.914
566.13	4.952
566.36	4.910
566.58	4.834
566.80	4.751
567.02	4.704
567.25	4.689
567.47	4.712
567.69	4.769
567.92	4.803
568.14	4.787
568.36	4.809
568.58	4.761
568.81	4.824
569.03	4.754
569.25	4.849
569.47	4.931
569.70	5.032
569.92	5.088
570.14	5.023
570.36	4.981
570.59	4.898
570.81	4.800
571.03	4.772
571.25	4.682
571.47	4.642
571.70	4.623
571.92	4.607
572.14	4.566
572.36	4.579
572.59	4.625
572.81	4.578
573.03	4.585
573.25	4.616
573.48	4.727
573.70	4.728
573.92	4.783
574.14	4.759
574.36	4.752
574.59	4.767
574.81	4.695
575.03	4.744
575.25	4.663
575.47	4.674
575.70	4.646
575.92	4.768
576.14	4.863
576.36	4.802
576.59	4.762
576.81	4.834
577.03	4.770
577.25	4.832
577.47	4.772
577.69	4.838
577.92	4.859
578.14	4.925
578.36	4.896
578.58	4.921
578.80	4.916
579.03	4.842
579.25	4.813
579.47	4.785
579.69	4.795
579.91	4.767
580.14	4.718
580.36	4.676
580.58	4.671
580.80	4.716
581.02	4.692
581.24	4.743
581.47	4.680
581.69	4.669
581.91	4.701
582.13	4.699
582.35	4.693
582.57	4.687
582.79	4.679
583.02	4.732
583.24	4.715
583.46	4.695
583.68	4.717
583.90	4.653
584.12	4.652
584.35	4.708
584.57	4.629
584.79	4.593
585.01	4.640
585.23	4.681
585.45	4.810
585.67	4.920
585.90	4.943
586.12	4.913
586.34	4.855
586.56	4.792
586.78	4.795
587.00	4.759
587.22	4.725
587.44	4.662
587.67	4.627
587.89	4.641
588.11	4.639
588.33	4.569
588.55	4.605
588.77	4.599
588.99	4.565
589.21	4.503
589.43	4.469
589.66	4.468
589.88	4.425
590.10	4.464
590.32	4.455
590.54	4.479
590.76	4.564
590.98	4.607
591.20	4.607
591.42	4.583
591.64	4.551
591.87	4.483
592.09	4.480
592.31	4.498
592.53	4.576
592.75	4.662
592.97	4.694
593.19	4.671
593.41	4.647
593.63	4.590
593.85	4.609
594.07	4.658
594.29	4.615
594.52	4.650
594.74	4.737
594.96	4.773
595.18	4.726
595.40	4.720
595.62	4.707
595.84	4.708
596.06	4.757
596.28	4.739
596.50	4.775
596.72	4.781
596.94	4.812
597.16	4.902
597.38	4.927
597.60	4.952
597.82	4.993
598.05	5.024
598.27	4.996
598.49	4.967
598.71	4.983
598.93	5.029
599.15	5.122
599.37	5.171
599.59	5.176
599.81	5.255
600.03	5.236
600.25	5.263
600.47	5.329
600.69	5.319
600.91	5.405
601.13	5.452
601.35	5.423
601.57	5.481
601.79	5.656
602.01	5.794
602.23	5.960
602.45	6.069
602.67	6.153
602.89	6.257
603.11	6.348
603.33	6.552
603.55	6.633
603.77	6.758
603.99	6.899
604.21	7.077
604.43	7.177
604.65	7.426
604.87	7.642
605.09	7.826
605.31	8.009
605.53	8.158
605.75	8.361
605.97	8.561
606.19	8.742
606.41	8.911
606.63	9.015
606.85	9.092
607.07	9.279
607.29	9.540
607.51	9.801
607.73	10.111
607.95	10.321
608.17	10.551
608.39	10.782
608.61	10.885
608.83	11.010
609.05	11.177
609.27	11.367
609.49	11.601
609.71	11.762
609.93	11.953
610.15	12.049
610.37	12.166
610.59	12.299
610.81	12.352
611.03	12.427
611.24	12.642
611.46	12.721
611.68	12.902
611.90	12.909
612.12	12.916
612.34	13.044
612.56	13.207
612.78	13.385
613.00	13.591
613.22	13.747
613.44	13.982
613.66	14.058
613.88	14.111
614.10	14.210
614.32	14.365
614.54	14.640
614.75	14.832
614.97	15.051
615.19	15.210
615.41	15.366
615.63	15.506
615.85	15.703
616.07	15.843
616.29	15.872
616.51	15.919
616.73	15.907
616.95	16.073
617.17	16.203
617.38	16.384
617.60	16.607
617.82	16.839
618.04	16.917
618.26	16.936
618.48	17.125
618.70	17.374
618.92	17.615
619.14	17.813
619.36	18.003
619.57	17.938
619.79	18.035
620.01	18.185
620.23	18.445
620.45	18.650
620.67	18.899
620.89	18.948
621.11	19.117
621.33	19.409
621.54	19.646
621.76	19.823
621.98	20.063
622.20	20.257
622.42	20.351
622.64	20.406
622.86	20.606
623.07	20.754
623.29	21.142
623.51	21.336
623.73	21.556
623.95	21.663
624.17	21.934
624.39	22.228
624.60	22.436
624.82	22.729
625.04	22.996
625.26	23.333
625.48	23.614
625.70	23.826
625.92	24.141
626.13	24.498
626.35	24.779
626.57	25.220
626.79	25.639
627.01	26.055
627.23	26.322
627.44	26.646
627.66	26.894
627.88	27.233
628.10	27.777
628.32	28.476
628.54	29.124
628.75	29.925
628.97	30.604
629.19	31.063
629.41	31.712
629.63	32.151
629.84	32.510
630.06	32.829
630.28	33.377
630.50	33.723
630.72	33.932
630.94	34.172
631.15	34.425
631.37	34.602
631.59	34.795
631.81	34.894
632.03	35.097
632.24	35.283
632.46	35.573
632.68	35.855
632.90	36.003
633.11	36.344
633.33	36.762
633.55	36.912
633.77	36.948
633.99	37.063
634.20	37.075
634.42	37.146
634.64	37.435
634.86	37.671
635.08	37.859
635.29	38.017
635.51	38.261
635.73	38.661
635.95	38.910
636.16	39.264
636.38	39.588
636.60	39.855
636.82	40.333
637.03	40.658
637.25	41.204
637.47	41.409
637.69	41.655
637.90	41.706
638.12	42.124
638.34	42.699
638.56	43.113
638.77	43.726
638.99	44.095
639.21	44.182
639.43	44.193
639.64	44.155
639.86	44.354
640.08	44.321
640.30	44.384
640.51	44.349
640.73	44.643
640.95	44.987
641.17	45.095
641.38	45.257
641.60	45.319
641.82	45.274
642.03	45.266
642.25	44.921
642.47	44.579
642.69	44.607
642.90	44.662
643.12	44.976
643.34	45.233
643.55	45.472
643.77	45.564
643.99	45.512
644.21	45.483
644.42	45.323
644.64	45.276
644.86	44.979
645.07	44.830
645.29	44.733
645.51	44.410
645.73	44.384
645.94	44.595
646.16	44.772
646.38	44.955
646.59	45.052
646.81	44.997
647.03	45.035
647.24	45.104
647.46	45.051
647.68	44.946
647.89	44.985
648.11	45.215
648.33	45.317
648.54	45.139
648.76	45.023
648.98	45.150
649.19	45.353
649.41	45.398
649.63	45.521
649.84	45.541
650.06	45.593
650.28	45.628
650.49	45.610
650.71	45.545
650.93	45.607
651.14	45.752
651.36	45.816
651.58	45.923
651.79	45.978
652.01	46.011
652.23	45.928
652.44	45.798
652.66	45.703
652.88	45.608
653.09	45.637
653.31	45.727
653.52	45.678
653.74	45.501
653.96	45.785
654.17	45.893
654.39	45.733
654.61	45.668
654.82	45.623
655.04	45.445
655.25	45.310
655.47	45.179
655.69	45.158
655.90	45.246
656.12	45.421
656.34	45.663
656.55	46.102
656.77	45.990
656.98	45.753
657.20	45.557
657.42	45.839
657.63	45.917
657.85	46.051
658.06	45.904
658.28	45.966
658.50	45.898
658.71	45.914
658.93	45.965
659.14	46.202
659.36	46.139
659.58	46.113
659.79	45.857
660.01	46.145
660.22	46.205
660.44	46.087
660.65	46.327
660.87	46.770
661.09	46.703
661.30	46.838
661.52	47.167
661.73	47.029
661.95	46.959
662.16	46.825
662.38	46.412
662.60	46.145
662.81	46.075
663.03	46.153
663.24	45.925
663.46	46.250
663.67	46.449
663.89	46.739
664.11	46.934
664.32	46.993
664.54	46.867
664.75	46.715
664.97	46.502
665.18	46.386
665.40	46.293
665.61	46.559
665.83	46.847
666.04	46.875
666.26	47.029
666.48	46.811
666.69	46.793
666.91	46.886
667.12	46.768
667.34	46.728
667.55	46.828
667.77	46.845
667.98	46.844
668.20	46.988
668.41	46.824
668.63	46.536
668.84	46.409
669.06	46.305
669.27	46.684
669.49	46.944
669.70	46.987
669.92	46.910
670.13	46.735
670.35	46.956
670.56	47.336
670.78	47.358
670.99	47.336
671.21	47.349
671.42	47.016
671.64	46.715
671.85	46.427
672.07	46.350
672.28	46.350
672.50	46.576
672.71	46.633
