OOIBase32 Version 2.0.1.4 Data File
++++++++++++++++++++++++++++++++++++
Date: 11-03-2025, 09:57:51
User: Valued Ocean Optics Customer
Spectrometer Serial Number: HR2B216
Spectrometer Channel: Master
Integration Time (msec): 5
Spectra Averaged: 80
Boxcar Smoothing: 0
Correct for Electrical Dark: Disabled
Time Normalized: Disabled
Dual-beam Reference: Disabled
Reference Channel: Master
Temperature: Not acquired
Spectrometer Type: S2000
ADC Type: HR2000
Number of Pixels in File: 2048
Graph Title: 
>>>>>Begin Spectral Data<<<<<
373.12	0.000
373.35	-1050.041
373.59	-712.450
373.82	-113.636
374.06	-242.852
374.29	-120.410
374.53	-72.548
374.76	-415.390
375.00	-141.665
375.23	-31.034
375.47	-47.562
375.70	-18.103
375.94	-54.117
376.17	-23.078
376.40	-11702.808
376.64	-145.162
376.87	-25.001
377.11	-1225.118
377.34	-109.679
377.58	-175.006
377.81	-192.859
378.05	-125.003
378.28	-76.189
378.52	-71.427
378.75	939.990
378.99	7.998
379.22	-75.001
379.45	-26.573
379.69	-44.706
379.92	-10.959
380.16	-48.588
380.39	-4.103
380.63	-10.788
380.86	-7.172
381.10	-4.202
381.33	12.558
381.56	3.482
381.80	-0.833
382.03	-23.979
382.27	-23.119
382.50	-2.049
382.74	-9.005
382.97	-3.509
383.21	7.566
383.44	0.386
383.67	-11.017
383.91	23.077
384.14	-0.369
384.38	7.767
384.61	0.752
384.84	-8.185
385.08	-23.684
385.31	-16.495
385.55	-1.603
385.78	11.583
386.02	-12.800
386.25	13.487
386.48	28.125
386.72	29.936
386.95	16.265
387.19	-21.161
387.42	-5.296
387.65	-26.263
387.89	0.000
388.12	4.630
388.36	5.650
388.59	0.000
388.82	-9.254
389.06	2.388
389.29	-9.467
389.53	4.802
389.76	-1.724
389.99	-1.093
390.23	1.643
390.46	3.807
390.70	7.452
390.93	-1.956
391.16	-17.073
391.40	-9.714
391.63	-5.650
391.87	-20.769
392.10	-7.524
392.33	0.983
392.57	-1.659
392.80	-10.451
393.03	-1.307
393.27	3.138
393.50	-1.260
393.74	5.811
393.97	2.864
394.20	-4.732
394.44	0.893
394.67	1.804
394.90	-0.209
395.14	5.185
395.37	7.919
395.60	-8.965
395.84	-7.083
396.07	-0.933
396.31	7.443
396.54	-5.395
396.77	1.919
397.01	7.908
397.24	6.261
397.47	0.345
397.71	2.778
397.94	2.069
398.17	0.168
398.41	3.467
398.64	-10.566
398.87	0.332
399.11	-3.583
399.34	-1.711
399.57	0.602
399.81	-1.244
400.04	3.012
400.27	-0.966
400.51	2.707
400.74	10.614
400.97	5.524
401.21	7.905
401.44	5.710
401.67	-5.802
401.91	-3.318
402.14	-2.590
402.37	-6.560
402.61	-9.309
402.84	4.139
403.07	-0.549
403.31	-0.535
403.54	4.545
403.77	2.493
404.00	0.000
404.24	2.058
404.47	7.845
404.70	8.402
404.94	-1.060
405.17	1.108
405.40	-1.810
405.64	-1.247
405.87	4.989
406.10	1.135
406.34	2.275
406.57	2.609
406.80	2.052
407.03	-0.317
407.27	-0.862
407.50	2.444
407.73	2.574
407.97	3.319
408.20	1.194
408.43	2.554
408.66	-3.043
408.90	2.529
409.13	4.942
409.36	1.522
409.60	6.432
409.83	2.770
410.06	5.090
410.29	-0.920
410.53	3.565
410.76	3.936
410.99	4.041
411.22	2.151
411.46	-0.433
411.69	3.536
411.92	0.322
412.16	-1.149
412.39	1.507
412.62	3.891
412.85	5.022
413.09	0.152
413.32	1.618
413.55	-1.662
413.78	4.766
414.02	-3.139
414.25	-3.409
414.48	-1.943
414.71	5.229
414.95	4.802
415.18	6.590
415.41	5.201
415.64	2.913
415.88	2.644
416.11	1.121
416.34	-0.530
416.57	-0.706
416.80	0.823
417.04	-0.587
417.27	3.711
417.50	2.194
417.73	1.041
417.97	2.799
418.20	-0.565
418.43	-1.207
418.66	-1.131
418.90	2.431
419.13	3.875
419.36	1.174
419.59	0.533
419.82	0.444
420.06	0.056
420.29	0.855
420.52	-0.577
420.75	1.924
420.98	0.211
421.22	-0.105
421.45	-1.632
421.68	1.873
421.91	-0.192
422.15	1.592
422.38	0.144
422.61	1.994
422.84	1.032
423.07	3.585
423.31	1.908
423.54	1.531
423.77	0.753
424.00	1.019
424.23	1.192
424.46	1.491
424.70	-0.445
424.93	1.995
425.16	0.508
425.39	1.732
425.62	0.812
425.86	-0.237
426.09	0.669
426.32	2.666
426.55	0.544
426.78	1.116
427.01	0.777
427.25	3.370
427.48	0.935
427.71	1.164
427.94	0.437
428.17	1.032
428.40	-0.276
428.64	-0.429
428.87	0.449
429.10	1.819
429.33	-0.469
429.56	1.558
429.79	1.150
430.03	0.140
430.26	1.498
430.49	-0.578
430.72	1.020
430.95	0.557
431.18	-0.216
431.42	0.000
431.65	3.816
431.88	-0.519
432.11	1.495
432.34	1.696
432.57	2.348
432.80	0.412
433.04	-1.211
433.27	0.614
433.50	0.371
433.73	0.489
433.96	0.512
434.19	1.750
434.42	0.600
434.65	0.921
434.89	0.239
435.12	1.109
435.35	1.597
435.58	1.537
435.81	-0.825
436.04	0.901
436.27	1.691
436.50	1.466
436.74	1.460
436.97	0.746
437.20	1.158
437.43	1.415
437.66	0.250
437.89	0.622
438.12	0.065
438.35	-0.435
438.58	1.046
438.82	1.048
439.05	0.293
439.28	0.816
439.51	1.234
439.74	0.332
439.97	0.600
440.20	0.445
440.43	0.503
440.66	0.749
440.89	1.079
441.12	1.419
441.36	0.670
441.59	0.731
441.82	0.489
442.05	0.683
442.28	0.678
442.51	1.705
442.74	1.667
442.97	1.041
443.20	0.960
443.43	0.740
443.66	1.592
443.89	0.921
444.13	0.771
444.36	0.584
444.59	1.381
444.82	0.726
445.05	0.466
445.28	1.141
445.51	0.638
445.74	0.661
445.97	0.347
446.20	0.793
446.43	0.379
446.66	0.354
446.89	0.852
447.12	0.694
447.35	0.561
447.58	0.644
447.81	0.536
448.05	0.779
448.28	0.982
448.51	1.680
448.74	1.065
448.97	1.518
449.20	0.807
449.43	0.856
449.66	0.278
449.89	0.426
450.12	0.267
450.35	0.433
450.58	0.655
450.81	1.030
451.04	0.702
451.27	0.093
451.50	-0.241
451.73	0.327
451.96	0.853
452.19	1.001
452.42	0.930
452.65	0.626
452.88	-0.145
453.11	0.598
453.34	0.252
453.57	0.364
453.80	0.213
454.03	-0.058
454.26	0.521
454.49	-0.023
454.72	0.114
454.95	0.888
455.18	0.760
455.41	0.751
455.64	0.640
455.87	0.883
456.10	0.893
456.33	1.069
456.56	0.959
456.79	0.727
457.02	0.146
457.25	0.651
457.48	1.006
457.71	0.359
457.94	0.527
458.17	1.014
458.40	0.792
458.63	0.310
458.86	0.576
459.09	0.361
459.32	0.633
459.55	0.464
459.78	0.725
460.01	0.784
460.24	0.689
460.47	0.276
460.70	0.412
460.93	-0.037
461.16	0.077
461.39	-0.087
461.62	0.045
461.85	-0.180
462.08	0.452
462.31	0.970
462.54	0.353
462.77	0.273
463.00	0.515
463.22	0.480
463.45	0.877
463.68	0.634
463.91	0.484
464.14	0.172
464.37	0.288
464.60	0.497
464.83	0.614
465.06	0.748
465.29	0.922
465.52	0.184
465.75	0.722
465.98	0.479
466.21	0.506
466.44	0.752
466.67	1.105
466.90	0.718
467.12	0.739
467.35	0.440
467.58	0.667
467.81	1.127
468.04	0.871
468.27	0.949
468.50	0.799
468.73	0.595
468.96	0.663
469.19	0.488
469.42	0.606
469.65	0.169
469.87	0.398
470.10	0.748
470.33	0.967
470.56	0.577
470.79	0.416
471.02	0.419
471.25	0.619
471.48	0.708
471.71	0.664
471.94	0.537
472.17	0.459
472.39	0.595
472.62	0.615
472.85	0.841
473.08	0.669
473.31	0.470
473.54	0.393
473.77	0.789
474.00	0.739
474.23	0.516
474.45	0.561
474.68	0.737
474.91	0.601
475.14	0.496
475.37	0.497
475.60	0.742
475.83	0.607
476.06	0.311
476.28	0.572
476.51	0.487
476.74	0.469
476.97	0.620
477.20	0.709
477.43	0.689
477.66	0.694
477.88	0.613
478.11	0.741
478.34	0.657
478.57	0.616
478.80	0.715
479.03	0.818
479.26	0.620
479.48	0.956
479.71	0.673
479.94	0.819
480.17	0.863
480.40	0.738
480.63	0.770
480.86	0.695
481.08	0.818
481.31	0.851
481.54	0.939
481.77	0.830
482.00	0.752
482.23	0.773
482.45	0.862
482.68	0.965
482.91	1.033
483.14	0.855
483.37	1.024
483.60	0.956
483.82	1.025
484.05	1.054
484.28	0.982
484.51	0.991
484.74	1.127
484.96	1.193
485.19	1.429
485.42	1.385
485.65	1.521
485.88	1.391
486.10	1.406
486.33	1.417
486.56	1.521
486.79	1.576
487.02	1.617
487.25	1.677
487.47	1.679
487.70	1.854
487.93	1.975
488.16	1.843
488.39	2.034
488.61	2.280
488.84	2.359
489.07	2.470
489.30	2.542
489.52	2.637
489.75	2.584
489.98	2.775
490.21	2.870
490.44	3.027
490.66	3.011
490.89	3.148
491.12	3.386
491.35	3.464
491.57	3.663
491.80	3.721
492.03	3.786
492.26	4.092
492.49	4.187
492.71	4.579
492.94	4.699
493.17	4.700
493.40	4.983
493.62	5.092
493.85	5.375
494.08	5.637
494.31	5.788
494.53	5.962
494.76	6.249
494.99	6.418
495.22	6.591
495.44	6.939
495.67	7.336
495.90	7.438
496.13	7.725
496.35	7.938
496.58	8.402
496.81	8.616
497.04	8.963
497.26	9.357
497.49	9.467
497.72	9.897
497.95	10.421
498.17	10.672
498.40	11.283
498.63	11.741
498.85	12.056
499.08	12.392
499.31	12.639
499.54	13.019
499.76	13.414
499.99	13.931
500.22	14.358
500.44	14.546
500.67	15.085
500.90	15.656
501.13	16.207
501.35	16.743
501.58	17.441
501.81	17.746
502.03	18.253
502.26	18.817
502.49	19.339
502.72	19.997
502.94	20.598
503.17	21.326
503.40	21.804
503.62	22.201
503.85	22.753
504.08	23.346
504.30	23.908
504.53	24.654
504.76	25.406
504.98	25.886
505.21	26.579
505.44	27.340
505.67	27.980
505.89	28.653
506.12	29.406
506.35	29.907
506.57	30.491
506.80	31.307
507.03	31.848
507.25	32.626
507.48	33.152
507.71	34.007
507.93	34.771
508.16	35.489
508.39	36.284
508.61	36.797
508.84	37.549
509.07	38.481
509.29	39.251
509.52	39.633
509.75	40.461
509.97	41.177
510.20	41.907
510.43	42.571
510.65	43.279
510.88	43.985
511.10	44.670
511.33	45.458
511.56	46.031
511.78	46.951
512.01	47.684
512.24	48.404
512.46	49.018
512.69	49.509
512.92	50.224
513.14	50.651
513.37	51.434
513.59	52.059
513.82	52.840
514.05	53.584
514.27	54.025
514.50	54.311
514.73	55.153
514.95	55.813
515.18	56.685
515.40	57.356
515.63	58.057
515.86	58.656
516.08	59.693
516.31	60.276
516.54	60.641
516.76	61.328
516.99	62.038
517.21	62.602
517.44	63.039
517.67	63.206
517.89	63.804
518.12	64.322
518.34	65.033
518.57	65.271
518.80	65.485
519.02	65.962
519.25	66.123
519.47	66.681
519.70	67.695
519.93	68.660
520.15	69.285
520.38	69.875
520.60	70.266
520.83	70.773
521.05	71.300
521.28	71.436
521.51	71.959
521.73	72.360
521.96	72.868
522.18	73.026
522.41	73.269
522.63	73.847
522.86	73.655
523.09	74.165
523.31	74.700
523.54	75.376
523.76	75.227
523.99	75.233
524.21	76.070
524.44	76.689
524.67	77.138
524.89	77.315
525.12	77.314
525.34	77.470
525.57	77.796
525.79	77.715
526.02	78.094
526.24	78.733
526.47	79.140
526.69	79.598
526.92	79.981
527.15	80.693
527.37	80.696
527.60	81.164
527.82	81.188
528.05	81.616
528.27	81.748
528.50	81.697
528.72	81.267
528.95	81.227
529.17	81.505
529.40	81.726
529.62	81.994
529.85	82.021
530.07	82.507
530.30	82.721
530.52	82.800
530.75	83.228
530.98	83.450
531.20	83.656
531.43	83.924
531.65	84.196
531.88	84.129
532.10	84.604
532.33	85.105
532.55	85.709
532.78	85.824
533.00	85.791
533.23	85.563
533.45	85.433
533.68	85.527
533.90	85.839
534.13	85.830
534.35	86.016
534.58	86.056
534.80	86.118
535.03	86.156
535.25	86.305
535.47	86.473
535.70	86.533
535.92	87.126
536.15	87.763
536.37	87.986
536.60	87.761
536.82	87.491
537.05	87.268
537.27	86.643
537.50	86.619
537.72	86.822
537.95	87.157
538.17	87.096
538.40	87.466
538.62	87.728
538.85	88.097
539.07	87.833
539.29	87.537
539.52	87.313
539.74	87.543
539.97	87.925
540.19	88.486
540.42	88.493
540.64	88.594
540.87	88.690
541.09	88.616
541.32	88.967
541.54	88.584
541.76	88.539
541.99	88.853
542.21	88.521
542.44	88.411
542.66	88.308
542.89	88.535
543.11	88.879
543.33	89.192
543.56	89.326
543.78	89.331
544.01	89.231
544.23	89.220
544.46	89.119
544.68	89.186
544.90	89.489
545.13	88.717
545.35	88.594
545.58	88.908
545.80	89.160
546.03	89.546
546.25	89.262
546.47	89.532
546.70	89.260
546.92	89.656
547.15	89.450
547.37	89.362
547.59	89.529
547.82	89.858
548.04	89.720
548.27	89.787
548.49	89.835
548.71	89.968
548.94	89.720
549.16	89.807
549.39	89.586
549.61	89.708
549.83	89.742
550.06	90.034
550.28	90.784
550.50	91.214
550.73	91.250
550.95	90.946
551.18	90.783
551.40	90.666
551.62	90.576
551.85	90.674
552.07	90.426
552.29	90.705
552.52	90.601
552.74	90.600
552.97	90.593
553.19	90.679
553.41	90.715
553.64	91.102
553.86	91.357
554.08	91.532
554.31	91.092
554.53	91.217
554.75	91.168
554.98	91.799
555.20	91.806
555.42	91.680
555.65	91.148
555.87	90.447
556.10	90.391
556.32	90.232
556.54	90.172
556.77	90.415
556.99	90.323
557.21	90.538
557.44	90.844
557.66	90.669
557.88	90.853
558.11	90.818
558.33	91.140
558.55	91.057
558.78	90.983
559.00	91.035
559.22	91.713
559.44	91.759
559.67	91.838
559.89	91.966
560.11	91.849
560.34	91.739
560.56	91.734
560.78	92.311
561.01	92.185
561.23	92.128
561.45	91.599
561.68	91.574
561.90	91.806
562.12	91.728
562.35	91.743
562.57	91.583
562.79	91.328
563.01	91.239
563.24	91.100
563.46	91.382
563.68	91.624
563.91	92.014
564.13	91.903
564.35	92.091
564.57	92.511
564.80	92.847
565.02	92.926
565.24	92.740
565.47	92.635
565.69	92.477
565.91	92.365
566.13	92.427
566.36	92.363
566.58	92.135
566.80	91.860
567.02	92.011
567.25	92.043
567.47	92.083
567.69	92.283
567.92	92.041
568.14	91.602
568.36	91.201
568.58	90.688
568.81	90.593
569.03	91.067
569.25	91.439
569.47	91.663
569.70	92.206
569.92	92.447
570.14	92.701
570.36	92.725
570.59	92.844
570.81	92.519
571.03	92.690
571.25	92.816
571.47	92.697
571.70	92.706
571.92	92.803
572.14	93.229
572.36	92.804
572.59	92.557
572.81	92.670
573.03	92.571
573.25	92.434
573.48	92.420
573.70	92.395
573.92	92.352
574.14	92.656
574.36	92.968
574.59	93.198
574.81	93.001
575.03	92.760
575.25	92.502
575.47	92.389
575.70	91.958
575.92	92.388
576.14	92.700
576.36	93.205
576.59	93.414
576.81	93.615
577.03	93.729
577.25	93.812
577.47	93.443
577.69	92.896
577.92	92.608
578.14	92.469
578.36	92.235
578.58	92.400
578.80	92.747
579.03	92.752
579.25	92.670
579.47	92.459
579.69	92.106
579.91	91.928
580.14	92.119
580.36	92.059
580.58	92.151
580.80	92.085
581.02	92.471
581.24	92.666
581.47	92.596
581.69	92.929
581.91	93.309
582.13	93.153
582.35	93.355
582.57	93.212
582.79	93.073
583.02	92.607
583.24	92.390
583.46	92.467
583.68	92.502
583.90	92.495
584.12	92.518
584.35	92.293
584.57	91.983
584.79	91.915
585.01	92.224
585.23	92.574
585.45	92.619
585.67	92.838
585.90	93.220
586.12	93.036
586.34	92.863
586.56	92.584
586.78	92.344
587.00	91.871
587.22	91.807
587.44	91.604
587.67	91.774
587.89	91.954
588.11	91.750
588.33	91.615
588.55	91.482
588.77	91.562
588.99	91.848
589.21	91.935
589.43	91.797
589.66	91.749
589.88	92.132
590.10	92.781
590.32	93.489
590.54	93.381
590.76	93.553
590.98	93.485
591.20	93.429
591.42	92.987
591.64	92.955
591.87	93.108
592.09	93.282
592.31	93.098
592.53	92.696
592.75	92.318
592.97	92.553
593.19	92.615
593.41	93.090
593.63	93.113
593.85	92.867
594.07	92.909
594.29	92.926
594.52	92.909
594.74	92.721
594.96	92.743
595.18	92.780
595.40	93.026
595.62	93.070
595.84	92.953
596.06	93.042
596.28	93.179
596.50	93.356
596.72	93.074
596.94	92.730
597.16	92.712
597.38	92.833
597.60	92.580
597.82	92.489
598.05	92.440
598.27	92.637
598.49	92.608
598.71	92.319
598.93	92.781
599.15	92.739
599.37	92.884
599.59	92.746
599.81	92.845
600.03	92.974
600.25	93.219
600.47	93.314
600.69	93.301
600.91	93.271
601.13	93.173
601.35	93.089
601.57	92.744
601.79	92.251
602.01	91.803
602.23	91.467
602.45	91.519
602.67	91.592
602.89	91.909
603.11	92.350
603.33	92.802
603.55	93.371
603.77	93.747
603.99	94.137
604.21	93.926
604.43	94.111
604.65	94.339
604.87	93.975
605.09	93.580
605.31	93.235
605.53	93.369
605.75	93.309
605.97	93.459
606.19	93.626
606.41	93.456
606.63	93.633
606.85	94.074
607.07	94.079
607.29	93.847
607.51	93.564
607.73	93.631
607.95	93.724
608.17	93.881
608.39	93.388
608.61	92.668
608.83	92.767
609.05	92.905
609.27	93.002
609.49	93.146
609.71	93.355
609.93	93.633
610.15	93.842
610.37	94.052
610.59	94.142
610.81	94.029
611.03	93.550
611.24	93.730
611.46	93.717
611.68	93.846
611.90	93.653
612.12	93.292
612.34	93.167
612.56	93.038
612.78	92.949
613.00	92.878
613.22	92.825
613.44	92.913
613.66	93.049
613.88	93.212
614.10	93.651
614.32	93.568
614.54	93.525
614.75	93.802
614.97	93.869
615.19	93.180
615.41	93.112
615.63	93.101
615.85	93.053
616.07	92.850
616.29	92.740
616.51	92.785
616.73	92.750
616.95	92.834
617.17	93.018
617.38	93.297
617.60	93.449
617.82	93.667
618.04	94.028
618.26	94.370
618.48	94.790
618.70	95.253
618.92	94.941
619.14	95.072
619.36	94.814
619.57	94.321
619.79	94.512
620.01	94.940
620.23	94.616
620.45	94.280
620.67	93.931
620.89	93.631
621.11	93.444
621.33	94.114
621.54	94.553
621.76	94.432
621.98	94.059
622.20	93.887
622.42	93.649
622.64	93.949
622.86	94.115
623.07	94.341
623.29	94.836
623.51	94.777
623.73	94.456
623.95	93.773
624.17	93.553
624.39	93.311
624.60	93.355
624.82	93.065
625.04	93.214
625.26	93.598
625.48	94.183
625.70	94.420
625.92	94.325
626.13	94.267
626.35	94.410
626.57	94.549
626.79	94.914
627.01	95.292
627.23	95.450
627.44	95.365
627.66	95.088
627.88	94.864
628.10	94.387
628.32	94.071
628.54	93.899
628.75	94.215
628.97	94.458
629.19	95.203
629.41	94.999
629.63	94.669
629.84	94.656
630.06	94.336
630.28	94.389
630.50	94.497
630.72	94.673
630.94	94.738
631.15	94.719
631.37	94.547
631.59	94.442
631.81	94.455
632.03	94.280
632.24	94.322
632.46	94.030
632.68	94.451
632.90	94.893
633.11	95.293
633.33	95.335
633.55	95.206
633.77	94.796
633.99	94.560
634.20	94.593
634.42	95.041
634.64	95.159
634.86	95.020
635.08	95.144
635.29	95.436
635.51	95.171
635.73	95.206
635.95	94.742
636.16	94.706
636.38	94.695
636.60	94.683
636.82	94.658
637.03	94.654
637.25	94.205
637.47	93.652
637.69	93.563
637.90	93.426
638.12	93.671
638.34	93.827
638.56	93.942
638.77	93.670
638.99	93.578
639.21	93.686
639.43	93.816
639.64	94.197
639.86	94.375
640.08	94.575
640.30	94.459
640.51	94.541
640.73	94.667
640.95	94.655
641.17	95.134
641.38	95.359
641.60	95.367
641.82	95.485
642.03	95.426
642.25	94.843
642.47	94.650
642.69	94.500
642.90	94.078
643.12	94.129
643.34	94.116
643.55	94.539
643.77	94.989
643.99	95.441
644.21	95.595
644.42	95.212
644.64	94.500
644.86	93.985
645.07	93.722
645.29	93.732
645.51	93.801
645.73	94.059
645.94	94.388
646.16	94.321
646.38	94.030
646.59	93.475
646.81	93.744
647.03	93.972
647.24	93.982
647.46	93.804
647.68	93.690
647.89	93.693
648.11	94.021
648.33	94.249
648.54	94.866
648.76	95.236
648.98	95.232
649.19	95.684
649.41	95.428
649.63	94.924
649.84	94.546
650.06	94.057
650.28	93.924
650.49	94.128
650.71	94.369
650.93	94.369
651.14	94.189
651.36	94.174
651.58	94.078
651.79	93.869
652.01	93.581
652.23	93.576
652.44	93.724
652.66	94.364
652.88	94.579
653.09	94.795
653.31	94.572
653.52	94.312
653.74	94.704
653.96	94.977
654.17	95.029
654.39	95.332
654.61	95.786
654.82	95.688
655.04	95.508
655.25	95.221
655.47	94.695
655.69	94.247
655.90	94.361
656.12	94.373
656.34	94.572
656.55	94.667
656.77	94.728
656.98	94.359
657.20	94.453
657.42	94.778
657.63	94.627
657.85	94.602
658.06	94.893
658.28	95.052
658.50	94.777
658.71	94.525
658.93	94.195
659.14	94.152
659.36	94.187
659.58	94.236
659.79	94.456
660.01	94.362
660.22	94.218
660.44	93.918
660.65	93.764
660.87	93.993
661.09	94.353
661.30	94.639
661.52	94.760
661.73	94.701
661.95	94.776
662.16	94.554
662.38	94.266
662.60	94.200
662.81	94.416
663.03	94.537
663.24	94.901
663.46	95.222
663.67	95.797
663.89	95.549
664.11	95.630
664.32	95.480
664.54	95.216
664.75	94.856
664.97	94.782
665.18	95.191
665.40	95.114
665.61	94.438
665.83	94.028
666.04	94.037
666.26	94.489
666.48	94.873
666.69	95.224
666.91	95.346
667.12	95.504
667.34	95.575
667.55	95.513
667.77	95.396
667.98	95.377
668.20	95.574
668.41	95.670
668.63	95.798
668.84	95.880
669.06	95.910
669.27	96.197
669.49	96.150
669.70	95.990
669.92	95.621
670.13	95.222
670.35	95.304
