OOIBase32 Version 2.0.1.4 Data File
++++++++++++++++++++++++++++++++++++
Date: 11-03-2025, 11:02:37
User: Valued Ocean Optics Customer
Spectrometer Serial Number: HR2B216
Spectrometer Channel: Master
Integration Time (msec): 5
Spectra Averaged: 80
Boxcar Smoothing: 0
Correct for Electrical Dark: Disabled
Time Normalized: Disabled
Dual-beam Reference: Disabled
Reference Channel: Master
Temperature: Not acquired
Spectrometer Type: S2000
ADC Type: HR2000
Number of Pixels in File: 2048
Graph Title: 
>>>>>Begin Spectral Data<<<<<
373.12	0.000
373.35	0.000
373.59	0.000
373.82	0.000
374.06	0.000
374.29	0.000
374.53	0.000
374.76	0.000
375.00	0.000
375.23	0.000
375.47	0.000
375.70	0.000
375.94	0.000
376.17	0.000
376.40	0.000
376.64	0.000
376.87	0.000
377.11	0.000
377.34	0.000
377.58	0.000
377.81	0.000
378.05	0.398
378.28	0.000
378.52	1.286
378.75	0.000
378.99	0.000
379.22	0.000
379.45	0.000
379.69	0.000
379.92	0.000
380.16	1.046
380.39	0.843
380.63	0.000
380.86	0.000
381.10	0.000
381.33	0.000
381.56	0.000
381.80	0.000
382.03	0.000
382.27	0.000
382.50	0.000
382.74	0.000
382.97	0.000
383.21	0.000
383.44	0.000
383.67	0.000
383.91	0.000
384.14	0.000
384.38	0.000
384.61	0.000
384.84	0.909
385.08	0.000
385.31	0.000
385.55	0.000
385.78	0.000
386.02	0.000
386.25	1.441
386.48	0.000
386.72	0.000
386.95	0.000
387.19	0.000
387.42	0.000
387.65	0.000
387.89	0.000
388.12	0.000
388.36	0.000
388.59	2.138
388.82	1.010
389.06	0.000
389.29	0.000
389.53	0.000
389.76	1.272
389.99	0.000
390.23	0.000
390.46	0.000
390.70	0.000
390.93	0.000
391.16	0.000
391.40	0.000
391.63	0.000
391.87	0.000
392.10	0.000
392.33	0.000
392.57	0.000
392.80	0.000
393.03	0.000
393.27	0.000
393.50	2.533
393.74	2.553
393.97	0.000
394.20	0.000
394.44	0.000
394.67	0.000
394.90	0.000
395.14	0.000
395.37	0.000
395.60	0.000
395.84	0.000
396.07	0.000
396.31	0.000
396.54	0.000
396.77	0.000
397.01	1.350
397.24	1.944
397.47	0.000
397.71	0.000
397.94	1.851
398.17	0.000
398.41	0.000
398.64	0.000
398.87	0.000
399.11	0.000
399.34	0.000
399.57	0.000
399.81	0.000
400.04	0.000
400.27	0.000
400.51	0.000
400.74	0.000
400.97	0.000
401.21	0.000
401.44	0.000
401.67	0.000
401.91	0.000
402.14	0.000
402.37	0.000
402.61	0.000
402.84	0.000
403.07	1.768
403.31	0.000
403.54	0.000
403.77	0.000
404.00	0.000
404.24	0.000
404.47	0.000
404.70	0.000
404.94	0.000
405.17	0.000
405.40	1.652
405.64	0.000
405.87	2.056
406.10	0.000
406.34	0.000
406.57	2.310
406.80	1.694
407.03	1.612
407.27	0.000
407.50	1.413
407.73	0.000
407.97	0.000
408.20	0.000
408.43	0.000
408.66	0.000
408.90	0.000
409.13	0.000
409.36	1.767
409.60	0.000
409.83	0.000
410.06	0.000
410.29	0.000
410.53	0.000
410.76	0.000
410.99	0.000
411.22	0.000
411.46	0.000
411.69	1.856
411.92	0.000
412.16	0.000
412.39	0.000
412.62	0.000
412.85	1.956
413.09	0.000
413.32	0.000
413.55	0.000
413.78	0.000
414.02	1.622
414.25	0.000
414.48	1.906
414.71	0.000
414.95	0.000
415.18	1.827
415.41	0.000
415.64	0.000
415.88	0.000
416.11	0.000
416.34	0.000
416.57	0.000
416.80	0.000
417.04	0.000
417.27	0.000
417.50	0.000
417.73	0.000
417.97	0.000
418.20	0.000
418.43	0.000
418.66	0.000
418.90	0.000
419.13	0.000
419.36	0.000
419.59	0.000
419.82	0.000
420.06	1.964
420.29	1.728
420.52	0.000
420.75	0.000
420.98	0.000
421.22	1.838
421.45	0.000
421.68	0.000
421.91	0.000
422.15	2.244
422.38	2.129
422.61	0.000
422.84	0.000
423.07	2.015
423.31	0.000
423.54	0.000
423.77	0.000
424.00	0.000
424.23	1.758
424.46	0.000
424.70	2.620
424.93	0.000
425.16	0.000
425.39	0.000
425.62	1.873
425.86	0.000
426.09	2.553
426.32	2.842
426.55	0.000
426.78	0.000
427.01	0.000
427.25	0.000
427.48	0.000
427.71	2.276
427.94	2.291
428.17	1.666
428.40	1.959
428.64	1.750
428.87	2.107
429.10	0.000
429.33	2.618
429.56	1.702
429.79	0.000
430.03	0.000
430.26	0.000
430.49	1.815
430.72	0.000
430.95	2.941
431.18	0.000
431.42	0.000
431.65	0.000
431.88	0.000
432.11	0.000
432.34	0.000
432.57	0.000
432.80	2.053
433.04	1.710
433.27	1.810
433.50	2.389
433.73	0.000
433.96	0.000
434.19	0.000
434.42	0.000
434.65	0.000
434.89	0.000
435.12	0.000
435.35	0.000
435.58	0.000
435.81	0.000
436.04	0.000
436.27	0.000
436.50	2.118
436.74	0.000
436.97	0.000
437.20	0.000
437.43	0.000
437.66	0.000
437.89	0.000
438.12	0.000
438.35	0.000
438.58	0.000
438.82	0.000
439.05	0.000
439.28	0.000
439.51	0.000
439.74	2.365
439.97	0.000
440.20	2.519
440.43	0.000
440.66	0.000
440.89	0.000
441.12	2.856
441.36	2.306
441.59	2.886
441.82	0.000
442.05	0.000
442.28	2.822
442.51	2.580
442.74	0.000
442.97	0.000
443.20	0.000
443.43	0.000
443.66	0.000
443.89	0.000
444.13	2.341
444.36	2.647
444.59	0.000
444.82	0.000
445.05	0.000
445.28	0.000
445.51	2.668
445.74	0.000
445.97	0.000
446.20	0.000
446.43	2.526
446.66	0.000
446.89	0.000
447.12	0.000
447.35	0.000
447.58	0.000
447.81	0.000
448.05	0.000
448.28	2.910
448.51	0.000
448.74	0.000
448.97	0.000
449.20	0.000
449.43	0.000
449.66	0.000
449.89	2.405
450.12	3.100
450.35	0.000
450.58	0.000
450.81	0.000
451.04	2.660
451.27	2.760
451.50	0.000
451.73	0.000
451.96	0.000
452.19	0.000
452.42	0.000
452.65	0.000
452.88	2.997
453.11	2.666
453.34	0.000
453.57	0.000
453.80	0.000
454.03	0.000
454.26	0.000
454.49	0.000
454.72	0.000
454.95	0.000
455.18	2.967
455.41	2.559
455.64	0.000
455.87	0.000
456.10	0.000
456.33	0.000
456.56	0.000
456.79	0.000
457.02	0.000
457.25	0.000
457.48	2.771
457.71	2.493
457.94	2.617
458.17	3.027
458.40	0.000
458.63	0.000
458.86	0.000
459.09	0.000
459.32	0.000
459.55	0.000
459.78	0.000
460.01	2.469
460.24	0.000
460.47	0.000
460.70	0.000
460.93	2.958
461.16	0.000
461.39	3.680
461.62	0.000
461.85	0.000
462.08	0.000
462.31	0.000
462.54	0.000
462.77	0.000
463.00	0.000
463.22	0.000
463.45	0.000
463.68	2.412
463.91	2.385
464.14	3.725
464.37	0.000
464.60	0.000
464.83	2.419
465.06	0.000
465.29	0.000
465.52	0.000
465.75	0.000
465.98	0.000
466.21	3.171
466.44	0.000
466.67	0.000
466.90	0.000
467.12	0.000
467.35	0.000
467.58	0.000
467.81	0.000
468.04	0.000
468.27	2.705
468.50	0.000
468.73	0.000
468.96	0.000
469.19	0.000
469.42	0.000
469.65	0.000
469.87	0.000
470.10	0.000
470.33	0.000
470.56	0.000
470.79	2.783
471.02	0.000
471.25	0.000
471.48	4.186
471.71	0.000
471.94	0.000
472.17	0.000
472.39	0.000
472.62	0.000
472.85	3.005
473.08	2.961
473.31	3.429
473.54	0.000
473.77	0.000
474.00	0.000
474.23	3.161
474.45	2.823
474.68	3.050
474.91	0.000
475.14	0.000
475.37	0.000
475.60	0.000
475.83	0.000
476.06	0.000
476.28	0.000
476.51	3.598
476.74	0.000
476.97	0.000
477.20	0.000
477.43	0.000
477.66	2.670
477.88	3.147
478.11	4.326
478.34	2.772
478.57	0.000
478.80	0.000
479.03	0.000
479.26	0.000
479.48	0.000
479.71	0.000
479.94	0.000
480.17	0.000
480.40	3.463
480.63	0.000
480.86	2.858
481.08	3.146
481.31	0.000
481.54	3.913
481.77	0.000
482.00	0.000
482.23	0.000
482.45	0.000
482.68	0.000
482.91	0.000
483.14	0.000
483.37	3.281
483.60	3.731
483.82	0.000
484.05	3.351
484.28	2.962
484.51	2.996
484.74	0.000
484.96	2.999
485.19	0.000
485.42	0.000
485.65	3.683
485.88	3.256
486.10	0.000
486.33	0.000
486.56	0.000
486.79	0.000
487.02	0.000
487.25	3.167
487.47	3.413
487.70	0.000
487.93	0.000
488.16	0.000
488.39	0.000
488.61	3.090
488.84	0.000
489.07	2.950
489.30	2.673
489.52	3.051
489.75	3.477
489.98	2.778
490.21	0.000
490.44	0.000
490.66	0.000
490.89	0.000
491.12	0.000
491.35	0.000
491.57	3.311
491.80	3.127
492.03	0.000
492.26	0.000
492.49	3.122
492.71	3.259
492.94	3.782
493.17	0.000
493.40	0.000
493.62	0.000
493.85	2.994
494.08	3.323
494.31	0.000
494.53	3.628
494.76	0.000
494.99	4.288
495.22	0.000
495.44	0.000
495.67	0.000
495.90	0.000
496.13	3.902
496.35	0.000
496.58	3.195
496.81	0.000
497.04	3.382
497.26	3.574
497.49	3.505
497.72	3.022
497.95	3.036
498.17	3.168
498.40	3.157
498.63	0.000
498.85	3.462
499.08	3.412
499.31	3.440
499.54	3.128
499.76	2.892
499.99	3.210
500.22	3.957
500.44	3.257
500.67	0.000
500.90	0.000
501.13	0.000
501.35	3.124
501.58	3.391
501.81	0.000
502.03	3.156
502.26	3.377
502.49	0.000
502.72	3.508
502.94	3.691
503.17	3.516
503.40	0.000
503.62	3.615
503.85	0.000
504.08	0.000
504.30	3.238
504.53	3.927
504.76	2.925
504.98	3.213
505.21	3.507
505.44	0.000
505.67	3.806
505.89	3.602
506.12	0.000
506.35	3.398
506.57	0.000
506.80	0.000
507.03	0.000
507.25	0.000
507.48	0.000
507.71	3.480
507.93	3.657
508.16	0.000
508.39	0.000
508.61	0.000
508.84	2.955
509.07	3.515
509.29	4.143
509.52	0.000
509.75	3.230
509.97	3.407
510.20	3.391
510.43	4.153
510.65	3.612
510.88	3.169
511.10	3.650
511.33	0.000
511.56	3.986
511.78	3.125
512.01	3.087
512.24	4.766
512.46	0.000
512.69	0.000
512.92	3.575
513.14	3.829
513.37	3.141
513.59	3.552
513.82	0.000
514.05	3.200
514.27	3.180
514.50	0.000
514.73	0.000
514.95	3.373
515.18	0.000
515.40	3.262
515.63	4.492
515.86	3.379
516.08	3.543
516.31	2.927
516.54	2.846
516.76	3.008
516.99	3.173
517.21	3.807
517.44	3.078
517.67	3.209
517.89	2.934
518.12	3.293
518.34	2.945
518.57	3.017
518.80	3.069
519.02	2.925
519.25	3.263
519.47	3.502
519.70	3.016
519.93	3.469
520.15	0.000
520.38	3.053
520.60	3.027
520.83	3.109
521.05	3.514
521.28	3.356
521.51	3.434
521.73	3.256
521.96	3.020
522.18	2.861
522.41	3.086
522.63	3.071
522.86	2.919
523.09	3.174
523.31	2.949
523.54	3.116
523.76	4.073
523.99	3.224
524.21	3.295
524.44	2.980
524.67	2.715
524.89	3.050
525.12	3.405
525.34	2.942
525.57	2.991
525.79	3.247
526.02	2.913
526.24	3.092
526.47	2.841
526.69	2.933
526.92	3.282
527.15	2.869
527.37	2.819
527.60	3.002
527.82	3.111
528.05	3.153
528.27	3.121
528.50	2.853
528.72	2.815
528.95	2.915
529.17	3.199
529.40	2.833
529.62	3.164
529.85	2.849
530.07	2.785
530.30	2.974
530.52	3.024
530.75	2.869
530.98	2.978
531.20	3.035
531.43	2.933
531.65	3.011
531.88	3.345
532.10	3.495
532.33	3.120
532.55	3.094
532.78	3.192
533.00	2.958
533.23	2.855
533.45	2.962
533.68	2.771
533.90	2.977
534.13	2.822
534.35	2.913
534.58	3.021
534.80	2.838
535.03	3.050
535.25	3.142
535.47	3.057
535.70	3.020
535.92	2.917
536.15	3.118
536.37	3.020
536.60	3.051
536.82	2.888
537.05	3.071
537.27	2.932
537.50	2.903
537.72	3.055
537.95	2.816
538.17	2.778
538.40	2.866
538.62	3.184
538.85	3.052
539.07	3.226
539.29	3.047
539.52	2.803
539.74	2.791
539.97	2.884
540.19	3.075
540.42	2.893
540.64	2.881
540.87	3.189
541.09	2.907
541.32	2.890
541.54	3.072
541.76	3.095
541.99	2.841
542.21	3.037
542.44	3.010
542.66	2.775
542.89	2.861
543.11	2.838
543.33	2.904
543.56	2.896
543.78	2.903
544.01	2.970
544.23	2.987
544.46	2.991
544.68	2.893
544.90	2.809
545.13	2.776
545.35	2.811
545.58	2.872
545.80	2.786
546.03	2.786
546.25	2.804
546.47	2.869
546.70	2.828
546.92	2.871
547.15	2.984
547.37	2.779
547.59	2.814
547.82	2.960
548.04	2.946
548.27	2.859
548.49	2.886
548.71	2.919
548.94	2.882
549.16	2.961
549.39	2.781
549.61	2.855
549.83	2.654
550.06	2.658
550.28	2.800
550.50	2.849
550.73	2.761
550.95	2.859
551.18	2.755
551.40	2.850
551.62	2.881
551.85	2.836
552.07	2.968
552.29	3.018
552.52	2.949
552.74	2.900
552.97	2.835
553.19	2.783
553.41	2.782
553.64	2.863
553.86	2.812
554.08	2.994
554.31	2.886
554.53	2.828
554.75	2.802
554.98	2.801
555.20	2.808
555.42	2.857
555.65	2.930
555.87	2.878
556.10	2.843
556.32	2.916
556.54	2.879
556.77	2.785
556.99	2.709
557.21	2.823
557.44	2.765
557.66	2.812
557.88	2.878
558.11	2.810
558.33	2.774
558.55	2.786
558.78	2.928
559.00	2.837
559.22	2.731
559.44	2.734
559.67	2.759
559.89	2.716
560.11	2.892
560.34	2.799
560.56	2.809
560.78	2.764
561.01	2.710
561.23	2.719
561.45	2.762
561.68	2.808
561.90	2.773
562.12	2.691
562.35	2.817
562.57	2.781
562.79	2.784
563.01	2.676
563.24	2.657
563.46	2.703
563.68	2.769
563.91	2.778
564.13	2.814
564.35	2.858
564.57	2.824
564.80	2.907
565.02	2.792
565.24	2.728
565.47	2.817
565.69	2.802
565.91	2.780
566.13	2.729
566.36	2.746
566.58	2.756
566.80	2.711
567.02	2.690
567.25	2.767
567.47	2.777
567.69	2.727
567.92	2.627
568.14	2.782
568.36	2.757
568.58	2.832
568.81	2.782
569.03	2.706
569.25	2.817
569.47	2.748
569.70	2.733
569.92	2.736
570.14	2.704
570.36	2.755
570.59	2.786
570.81	2.707
571.03	2.715
571.25	2.689
571.47	2.705
571.70	2.775
571.92	2.735
572.14	2.772
572.36	2.724
572.59	2.753
572.81	2.808
573.03	2.733
573.25	2.711
573.48	2.758
573.70	2.745
573.92	2.759
574.14	2.742
574.36	2.741
574.59	2.629
574.81	2.634
575.03	2.673
575.25	2.627
575.47	2.649
575.70	2.762
575.92	2.749
576.14	2.726
576.36	2.696
576.59	2.787
576.81	2.709
577.03	2.765
577.25	2.709
577.47	2.685
577.69	2.726
577.92	2.678
578.14	2.706
578.36	2.713
578.58	2.732
578.80	2.713
579.03	2.648
579.25	2.693
579.47	2.667
579.69	2.644
579.91	2.634
580.14	2.566
580.36	2.582
580.58	2.586
580.80	2.625
581.02	2.518
581.24	2.509
581.47	2.510
581.69	2.510
581.91	2.542
582.13	2.537
582.35	2.536
582.57	2.593
582.79	2.591
583.02	2.550
583.24	2.527
583.46	2.549
583.68	2.504
583.90	2.457
584.12	2.463
584.35	2.383
584.57	2.345
584.79	2.294
585.01	2.245
585.23	2.208
585.45	2.161
585.67	2.115
585.90	2.109
586.12	2.049
586.34	2.027
586.56	1.991
586.78	1.956
587.00	1.930
587.22	1.894
587.44	1.865
587.67	1.831
587.89	1.810
588.11	1.784
588.33	1.758
588.55	1.737
588.77	1.702
588.99	1.685
589.21	1.671
589.43	1.653
589.66	1.638
589.88	1.609
590.10	1.602
590.32	1.583
590.54	1.572
590.76	1.554
590.98	1.543
591.20	1.530
591.42	1.520
591.64	1.505
591.87	1.492
592.09	1.474
592.31	1.462
592.53	1.449
592.75	1.441
592.97	1.425
593.19	1.413
593.41	1.405
593.63	1.401
593.85	1.392
594.07	1.378
594.29	1.377
594.52	1.368
594.74	1.365
594.96	1.357
595.18	1.346
595.40	1.347
595.62	1.336
595.84	1.328
596.06	1.320
596.28	1.307
596.50	1.299
596.72	1.295
596.94	1.286
597.16	1.277
597.38	1.271
597.60	1.260
597.82	1.250
598.05	1.241
598.27	1.231
598.49	1.226
598.71	1.218
598.93	1.205
599.15	1.202
599.37	1.197
599.59	1.188
599.81	1.179
600.03	1.172
600.25	1.166
600.47	1.153
600.69	1.148
600.91	1.137
601.13	1.123
601.35	1.115
601.57	1.105
601.79	1.100
602.01	1.091
602.23	1.080
602.45	1.071
602.67	1.061
602.89	1.051
603.11	1.037
603.33	1.024
603.55	1.010
603.77	1.003
603.99	0.992
604.21	0.984
604.43	0.973
604.65	0.963
604.87	0.948
605.09	0.937
605.31	0.926
605.53	0.914
605.75	0.907
605.97	0.897
606.19	0.885
606.41	0.872
606.63	0.857
606.85	0.843
607.07	0.830
607.29	0.819
607.51	0.810
607.73	0.797
607.95	0.781
608.17	0.768
608.39	0.753
608.61	0.738
608.83	0.721
609.05	0.708
609.27	0.693
609.49	0.674
609.71	0.658
609.93	0.641
610.15	0.624
610.37	0.606
610.59	0.586
610.81	0.565
611.03	0.542
611.24	0.518
611.46	0.491
611.68	0.460
611.90	0.429
612.12	0.401
612.34	0.377
612.56	0.359
612.78	0.346
613.00	0.339
613.22	0.334
613.44	0.329
613.66	0.327
613.88	0.325
614.10	0.320
614.32	0.317
614.54	0.314
614.75	0.314
614.97	0.313
615.19	0.311
615.41	0.308
615.63	0.306
615.85	0.305
616.07	0.303
616.29	0.298
616.51	0.295
616.73	0.289
616.95	0.282
617.17	0.279
617.38	0.275
617.60	0.273
617.82	0.271
618.04	0.268
618.26	0.263
618.48	0.259
618.70	0.251
618.92	0.246
619.14	0.242
619.36	0.239
619.57	0.233
619.79	0.228
620.01	0.222
620.23	0.218
620.45	0.213
620.67	0.208
620.89	0.201
621.11	0.197
621.33	0.195
621.54	0.193
621.76	0.191
621.98	0.189
622.20	0.189
622.42	0.188
622.64	0.187
622.86	0.188
623.07	0.189
623.29	0.188
623.51	0.189
623.73	0.190
623.95	0.189
624.17	0.188
624.39	0.188
624.60	0.187
624.82	0.186
625.04	0.185
625.26	0.182
625.48	0.182
625.70	0.183
625.92	0.182
626.13	0.183
626.35	0.183
626.57	0.185
626.79	0.186
627.01	0.186
627.23	0.187
627.44	0.186
627.66	0.185
627.88	0.186
628.10	0.184
628.32	0.182
628.54	0.181
628.75	0.183
628.97	0.187
629.19	0.186
629.41	0.186
629.63	0.188
629.84	0.187
630.06	0.184
630.28	0.182
630.50	0.182
630.72	0.184
630.94	0.186
631.15	0.183
631.37	0.181
631.59	0.181
631.81	0.180
632.03	0.179
632.24	0.179
632.46	0.179
632.68	0.176
632.90	0.176
633.11	0.177
633.33	0.180
633.55	0.183
633.77	0.187
633.99	0.189
634.20	0.186
634.42	0.186
634.64	0.185
634.86	0.183
635.08	0.182
635.29	0.180
635.51	0.180
635.73	0.178
635.95	0.178
636.16	0.177
636.38	0.177
636.60	0.177
636.82	0.176
637.03	0.174
637.25	0.173
637.47	0.173
637.69	0.175
637.90	0.177
638.12	0.176
638.34	0.175
638.56	0.176
638.77	0.176
638.99	0.175
639.21	0.173
639.43	0.174
639.64	0.174
639.86	0.175
640.08	0.173
640.30	0.174
640.51	0.174
640.73	0.174
640.95	0.174
641.17	0.173
641.38	0.170
641.60	0.170
641.82	0.171
642.03	0.173
642.25	0.174
642.47	0.175
642.69	0.177
642.90	0.175
643.12	0.174
643.34	0.172
643.55	0.169
643.77	0.169
643.99	0.172
644.21	0.175
644.42	0.178
644.64	0.180
644.86	0.182
645.07	0.184
645.29	0.183
645.51	0.181
645.73	0.178
645.94	0.177
646.16	0.176
646.38	0.175
646.59	0.173
646.81	0.172
647.03	0.172
647.24	0.173
647.46	0.175
647.68	0.173
647.89	0.173
648.11	0.172
648.33	0.172
648.54	0.171
648.76	0.172
648.98	0.172
649.19	0.170
649.41	0.167
649.63	0.166
649.84	0.166
650.06	0.167
650.28	0.167
650.49	0.166
650.71	0.169
650.93	0.169
651.14	0.167
651.36	0.168
651.58	0.172
651.79	0.173
652.01	0.174
652.23	0.173
652.44	0.171
652.66	0.172
652.88	0.170
653.09	0.169
653.31	0.169
653.52	0.168
653.74	0.168
653.96	0.166
654.17	0.165
654.39	0.166
654.61	0.165
654.82	0.165
655.04	0.164
655.25	0.165
655.47	0.166
655.69	0.166
655.90	0.168
656.12	0.167
656.34	0.167
656.55	0.168
656.77	0.170
656.98	0.171
657.20	0.172
657.42	0.170
657.63	0.169
657.85	0.165
658.06	0.160
658.28	0.158
658.50	0.158
658.71	0.158
658.93	0.158
659.14	0.158
659.36	0.159
659.58	0.162
659.79	0.163
660.01	0.163
660.22	0.163
660.44	0.163
660.65	0.160
660.87	0.161
661.09	0.164
661.30	0.166
661.52	0.169
661.73	0.171
661.95	0.173
662.16	0.172
662.38	0.170
662.60	0.172
662.81	0.172
663.03	0.170
663.24	0.167
663.46	0.164
663.67	0.162
663.89	0.162
664.11	0.163
664.32	0.162
664.54	0.161
664.75	0.162
664.97	0.163
665.18	0.163
665.40	0.165
665.61	0.166
665.83	0.164
666.04	0.162
666.26	0.162
666.48	0.162
666.69	0.163
666.91	0.163
667.12	0.165
667.34	0.165
667.55	0.164
667.77	0.162
667.98	0.163
668.20	0.164
668.41	0.166
668.63	0.166
668.84	0.171
669.06	0.171
669.27	0.171
669.49	0.168
669.70	0.166
669.92	0.164
670.13	0.163
670.35	0.166
670.56	0.167
670.78	0.165
670.99	0.162
671.21	0.161
671.42	0.161
671.64	0.161
671.85	0.162
672.07	0.165
672.28	0.166
672.50	0.166
672.71	0.166
672.93	0.167
673.14	0.165
673.36	0.161
673.57	0.159
673.79	0.156
674.00	0.156
674.22	0.157
674.43	0.159
674.65	0.156
674.86	0.154
675.08	0.154
675.29	0.156
675.50	0.158
675.72	0.160
675.93	0.161
676.15	0.163
676.36	0.162
676.58	0.164
676.79	0.166
677.01	0.165
677.22	0.165
677.44	0.161
677.65	0.158
677.86	0.157
678.08	0.157
678.29	0.158
678.51	0.156
678.72	0.157
678.94	0.156
679.15	0.156
679.37	0.157
679.58	0.158
679.79	0.156
680.01	0.157
680.22	0.156
680.44	0.156
680.65	0.155
680.87	0.157
681.08	0.157
681.29	0.157
681.51	0.155
681.72	0.157
681.94	0.158
682.15	0.159
682.36	0.160
682.58	0.160
682.79	0.159
683.01	0.159
683.22	0.159
683.43	0.159
683.65	0.158
683.86	0.156
684.08	0.156
684.29	0.155
684.50	0.157
684.72	0.159
684.93	0.159
685.15	0.159
