OOIBase32 Version 2.0.1.4 Data File
++++++++++++++++++++++++++++++++++++
Date: 11-03-2025, 10:12:53
User: Valued Ocean Optics Customer
Spectrometer Serial Number: HR2B216
Spectrometer Channel: Master
Integration Time (msec): 5
Spectra Averaged: 80
Boxcar Smoothing: 0
Correct for Electrical Dark: Disabled
Time Normalized: Disabled
Dual-beam Reference: Disabled
Reference Channel: Master
Temperature: Not acquired
Spectrometer Type: S2000
ADC Type: HR2000
Number of Pixels in File: 2048
Graph Title: 
>>>>>Begin Spectral Data<<<<<
373.12	0.000
373.35	-124.999
373.59	6.122
373.82	12.195
374.06	-89.476
374.29	91.525
374.53	225.926
374.76	-40.000
375.00	-329.408
375.23	1800.427
375.47	441.661
375.70	-30.645
375.94	-81.249
376.17	-300.000
376.40	-29.412
376.64	-236.839
376.87	200.000
377.11	-22.448
377.34	-8.333
377.58	-12.857
377.81	-15.384
378.05	-52.857
378.28	-80.952
378.52	-36.363
378.75	-43.242
378.99	-76.469
379.22	12.499
379.45	62.667
379.69	63.750
379.92	8.197
380.16	-66.667
380.39	-69.233
380.63	50.000
380.86	26.667
381.10	71.428
381.33	26.923
381.56	55.172
381.80	35.803
382.03	50.000
382.27	18.518
382.50	11.539
382.74	-511.095
382.97	1200.041
383.21	-89.999
383.44	125.926
383.67	-7.842
383.91	12.280
384.14	-310.004
384.38	45.454
384.61	40.506
384.84	-63.158
385.08	-26.000
385.31	-154.550
385.55	-35.715
385.78	-2700.672
386.02	41.071
386.25	25.581
386.48	22.000
386.72	-99.969
386.95	53.191
387.19	5.661
387.42	43.860
387.65	116.325
387.89	50.000
388.12	40.580
388.36	6.250
388.59	13.699
388.82	-79.999
389.06	28.813
389.29	-54.764
389.53	-20.000
389.76	41.333
389.99	-1433.700
390.23	-84.852
390.46	36.170
390.70	-6.452
390.93	36.538
391.16	75.001
391.40	-11.765
391.63	2.940
391.87	-85.718
392.10	51.163
392.33	36.066
392.57	54.286
392.80	-64.584
393.03	-4.166
393.27	17.442
393.50	35.850
393.74	5.554
393.97	101.389
394.20	52.633
394.44	-49.997
394.67	23.685
394.90	100.000
395.14	-3.999
395.37	-146.425
395.60	12.195
395.84	13.514
396.07	43.243
396.31	14.516
396.54	20.224
396.77	13.114
397.01	12.697
397.24	-5.358
397.47	-49.999
397.71	52.564
397.94	-64.866
398.17	17.650
398.41	-121.054
398.64	6.556
398.87	60.416
399.11	31.250
399.34	50.000
399.57	-12.001
399.81	7.777
400.04	65.753
400.27	43.200
400.51	14.666
400.74	22.642
400.97	60.439
401.21	52.083
401.44	31.250
401.67	11.972
401.91	4.054
402.14	44.444
402.37	27.517
402.61	46.392
402.84	64.122
403.07	51.872
403.31	53.125
403.54	49.057
403.77	4.902
404.00	44.538
404.24	24.390
404.47	50.350
404.70	38.346
404.94	28.801
405.17	4.839
405.40	47.863
405.64	30.952
405.87	30.817
406.10	47.402
406.34	46.667
406.57	54.263
406.80	47.713
407.03	42.208
407.27	40.362
407.50	38.053
407.73	34.303
407.97	24.084
408.20	56.111
408.43	57.513
408.66	39.560
408.90	42.439
409.13	28.686
409.36	51.128
409.60	30.417
409.83	43.644
410.06	54.513
410.29	42.008
410.53	47.082
410.76	42.751
410.99	37.956
411.22	42.143
411.46	31.655
411.69	52.923
411.92	54.696
412.16	43.860
412.39	48.659
412.62	56.667
412.85	54.268
413.09	55.875
413.32	40.439
413.55	47.727
413.78	54.375
414.02	49.855
414.25	63.542
414.48	38.719
414.71	55.219
414.95	54.955
415.18	49.398
415.41	66.019
415.64	51.345
415.88	41.351
416.11	46.729
416.34	52.603
416.57	45.412
416.80	43.290
417.04	53.924
417.27	47.867
417.50	55.149
417.73	59.305
417.97	54.444
418.20	48.881
418.43	52.675
418.66	58.282
418.90	55.388
419.13	54.184
419.36	54.833
419.59	47.555
419.82	59.854
420.06	49.477
420.29	51.232
420.52	53.366
420.75	55.354
420.98	48.773
421.22	52.931
421.45	48.105
421.68	49.379
421.91	50.241
422.15	58.723
422.38	50.729
422.61	57.076
422.84	53.913
423.07	56.127
423.31	51.535
423.54	56.197
423.77	51.729
424.00	48.759
424.23	46.805
424.46	51.093
424.70	52.065
424.93	52.778
425.16	53.589
425.39	50.616
425.62	53.526
425.86	50.117
426.09	51.429
426.32	52.941
426.55	51.777
426.78	50.887
427.01	53.075
427.25	52.586
427.48	54.194
427.71	47.856
427.94	49.551
428.17	47.319
428.40	48.598
428.64	50.424
428.87	50.051
429.10	49.337
429.33	52.718
429.56	47.600
429.79	52.030
430.03	50.996
430.26	46.811
430.49	49.580
430.72	53.021
430.95	50.096
431.18	53.243
431.42	52.957
431.65	46.233
431.88	51.193
432.11	49.827
432.34	50.044
432.57	45.578
432.80	49.755
433.04	50.207
433.27	51.870
433.50	51.322
433.73	52.120
433.96	49.038
434.19	47.420
434.42	50.499
434.65	48.603
434.89	51.504
435.12	50.533
435.35	53.302
435.58	47.948
435.81	48.358
436.04	48.609
436.27	48.197
436.50	49.214
436.74	48.278
436.97	47.051
437.20	51.814
437.43	50.884
437.66	47.821
437.89	50.795
438.12	48.991
438.35	49.758
438.58	47.553
438.82	51.562
439.05	50.193
439.28	51.637
439.51	47.978
439.74	45.229
439.97	49.459
440.20	47.236
440.43	47.797
440.66	49.267
440.89	49.948
441.12	47.998
441.36	49.454
441.59	50.118
441.82	47.400
442.05	49.953
442.28	47.018
442.51	49.952
442.74	48.512
442.97	49.594
443.20	49.536
443.43	47.475
443.66	50.948
443.89	47.232
444.13	45.455
444.36	47.863
444.59	47.152
444.82	47.812
445.05	47.293
445.28	49.246
445.51	48.512
445.74	49.630
445.97	48.067
446.20	48.581
446.43	46.863
446.66	47.708
446.89	48.816
447.12	46.763
447.35	48.930
447.58	48.001
447.81	47.701
448.05	46.754
448.28	48.507
448.51	47.604
448.74	47.897
448.97	48.137
449.20	49.265
449.43	49.478
449.66	48.288
449.89	47.774
450.12	50.098
450.35	47.872
450.58	46.758
450.81	46.331
451.04	47.234
451.27	46.206
451.50	46.337
451.73	46.710
451.96	46.778
452.19	47.271
452.42	46.450
452.65	47.726
452.88	46.404
453.11	46.833
453.34	47.842
453.57	49.556
453.80	47.159
454.03	46.913
454.26	47.966
454.49	46.806
454.72	45.219
454.95	45.211
455.18	47.228
455.41	46.866
455.64	45.577
455.87	45.608
456.10	46.714
456.33	46.759
456.56	46.633
456.79	45.941
457.02	45.394
457.25	47.319
457.48	45.993
457.71	46.283
457.94	46.292
458.17	46.166
458.40	46.864
458.63	46.296
458.86	46.282
459.09	46.733
459.32	45.585
459.55	46.402
459.78	47.444
460.01	47.713
460.24	46.719
460.47	46.432
460.70	46.180
460.93	45.869
461.16	45.803
461.39	45.708
461.62	46.187
461.85	45.384
462.08	46.315
462.31	47.377
462.54	45.391
462.77	44.740
463.00	45.513
463.22	45.502
463.45	45.973
463.68	44.878
463.91	45.241
464.14	45.328
464.37	45.951
464.60	45.742
464.83	45.023
465.06	45.494
465.29	44.843
465.52	46.037
465.75	45.822
465.98	45.764
466.21	45.369
466.44	45.037
466.67	44.691
466.90	44.802
467.12	45.581
467.35	45.201
467.58	44.980
467.81	45.081
468.04	45.282
468.27	45.555
468.50	45.316
468.73	44.906
468.96	45.911
469.19	45.688
469.42	45.907
469.65	45.242
469.87	45.661
470.10	45.041
470.33	44.689
470.56	45.809
470.79	45.140
471.02	45.040
471.25	45.125
471.48	45.060
471.71	45.320
471.94	45.156
472.17	44.901
472.39	45.185
472.62	45.053
472.85	44.397
473.08	44.086
473.31	43.724
473.54	45.315
473.77	45.343
474.00	44.141
474.23	44.591
474.45	43.420
474.68	44.260
474.91	44.817
475.14	44.885
475.37	44.442
475.60	45.076
475.83	44.772
476.06	44.670
476.28	43.801
476.51	44.014
476.74	44.372
476.97	44.382
477.20	44.931
477.43	44.432
477.66	44.409
477.88	43.575
478.11	44.323
478.34	44.296
478.57	45.185
478.80	44.625
479.03	45.011
479.26	43.939
479.48	43.667
479.71	44.580
479.94	45.122
480.17	44.494
480.40	44.339
480.63	44.295
480.86	45.010
481.08	44.871
481.31	44.868
481.54	45.029
481.77	44.899
482.00	44.560
482.23	44.169
482.45	43.340
482.68	44.463
482.91	44.382
483.14	44.400
483.37	43.560
483.60	44.425
483.82	44.290
484.05	44.402
484.28	44.469
484.51	44.686
484.74	44.351
484.96	44.127
485.19	44.315
485.42	43.968
485.65	44.429
485.88	45.145
486.10	44.393
486.33	44.451
486.56	44.502
486.79	43.732
487.02	44.147
487.25	43.954
487.47	44.212
487.70	43.696
487.93	43.962
488.16	44.126
488.39	44.109
488.61	43.679
488.84	43.867
489.07	44.426
489.30	44.007
489.52	43.650
489.75	44.177
489.98	44.049
490.21	44.132
490.44	44.221
490.66	43.979
490.89	44.391
491.12	43.811
491.35	43.725
491.57	44.230
491.80	44.035
492.03	44.279
492.26	44.196
492.49	43.996
492.71	43.598
492.94	44.108
493.17	43.971
493.40	44.029
493.62	43.931
493.85	43.733
494.08	43.216
494.31	43.374
494.53	43.785
494.76	43.495
494.99	43.378
495.22	43.732
495.44	43.898
495.67	43.673
495.90	43.473
496.13	43.443
496.35	44.151
496.58	44.257
496.81	44.270
497.04	44.116
497.26	43.886
497.49	44.171
497.72	44.126
497.95	44.102
498.17	43.924
498.40	43.803
498.63	43.816
498.85	43.772
499.08	43.784
499.31	43.573
499.54	43.926
499.76	43.706
499.99	43.548
500.22	43.393
500.44	43.431
500.67	43.555
500.90	43.750
501.13	43.610
501.35	43.888
501.58	43.466
501.81	43.507
502.03	43.448
502.26	43.327
502.49	43.981
502.72	44.288
502.94	44.259
503.17	44.620
503.40	45.032
503.62	45.448
503.85	45.814
504.08	46.453
504.30	46.685
504.53	47.373
504.76	47.899
504.98	48.629
505.21	49.360
505.44	50.072
505.67	50.936
505.89	52.254
506.12	52.954
506.35	54.194
506.57	55.171
506.80	55.480
507.03	56.164
507.25	57.630
507.48	58.297
507.71	59.338
507.93	59.854
508.16	60.784
508.39	61.667
508.61	63.062
508.84	63.222
509.07	64.689
509.29	66.058
509.52	66.975
509.75	67.950
509.97	68.040
510.20	69.272
510.43	69.400
510.65	70.020
510.88	70.851
511.10	70.926
511.33	71.850
511.56	71.751
511.78	72.324
512.01	72.364
512.24	72.530
512.46	72.735
512.69	73.821
512.92	74.545
513.14	75.024
513.37	76.403
513.59	75.912
513.82	75.803
514.05	76.529
514.27	76.850
514.50	76.317
514.73	76.691
514.95	77.329
515.18	77.550
515.40	78.140
515.63	78.589
515.86	78.596
516.08	79.176
516.31	79.319
516.54	79.369
516.76	79.985
516.99	80.062
517.21	79.567
517.44	78.966
517.67	79.406
517.89	79.491
518.12	79.900
518.34	79.771
518.57	79.992
518.80	80.305
519.02	81.168
519.25	80.965
519.47	79.931
519.70	80.758
519.93	80.729
520.15	80.999
520.38	80.638
520.60	80.234
520.83	79.976
521.05	79.640
521.28	79.559
521.51	79.269
521.73	79.588
521.96	79.071
522.18	79.157
522.41	78.541
522.63	78.671
522.86	79.308
523.09	78.877
523.31	79.627
523.54	79.548
523.76	79.141
523.99	79.846
524.21	79.859
524.44	79.752
524.67	79.697
524.89	79.662
525.12	80.500
525.34	80.511
525.57	80.328
525.79	81.143
526.02	80.693
526.24	81.061
526.47	80.849
526.69	81.086
526.92	81.070
527.15	82.443
527.37	81.664
527.60	81.999
527.82	82.066
528.05	82.673
528.27	82.646
528.50	82.515
528.72	82.509
528.95	81.967
529.17	81.530
529.40	82.370
529.62	81.722
529.85	82.123
530.07	81.717
530.30	81.598
530.52	81.445
530.75	81.503
530.98	81.957
531.20	81.529
531.43	81.650
531.65	81.447
531.88	81.327
532.10	80.930
532.33	80.594
532.55	81.123
532.78	81.342
533.00	80.997
533.23	80.864
533.45	80.960
533.68	81.601
533.90	81.625
534.13	81.332
534.35	80.843
534.58	81.148
534.80	80.824
535.03	80.891
535.25	81.323
535.47	81.564
535.70	81.149
535.92	80.786
536.15	81.169
536.37	81.617
536.60	81.431
536.82	81.579
537.05	81.744
537.27	81.570
537.50	81.896
537.72	82.021
537.95	82.734
538.17	82.621
538.40	83.195
538.62	83.387
538.85	82.811
539.07	83.204
539.29	83.192
539.52	82.904
539.74	83.554
539.97	83.030
540.19	82.450
540.42	82.772
540.64	83.124
540.87	82.920
541.09	83.326
541.32	84.044
541.54	83.811
541.76	84.036
541.99	83.687
542.21	84.697
542.44	84.346
542.66	83.490
542.89	82.930
543.11	83.131
543.33	82.681
543.56	82.620
543.78	83.388
544.01	82.947
544.23	83.200
544.46	83.375
544.68	83.038
544.90	83.435
545.13	83.002
545.35	83.183
545.58	83.688
545.80	83.342
546.03	83.104
546.25	83.378
546.47	82.957
546.70	83.459
546.92	83.855
547.15	84.204
547.37	84.476
547.59	83.802
547.82	83.587
548.04	83.162
548.27	83.097
548.49	82.966
548.71	83.143
548.94	83.110
549.16	83.067
549.39	82.567
549.61	82.724
549.83	83.004
550.06	82.749
550.28	83.277
550.50	83.034
550.73	83.258
550.95	83.034
551.18	83.677
551.40	83.598
551.62	83.940
551.85	83.827
552.07	83.833
552.29	83.357
552.52	83.765
552.74	83.099
552.97	83.711
553.19	83.887
553.41	84.319
553.64	84.422
553.86	84.391
554.08	83.833
554.31	83.948
554.53	83.626
554.75	83.915
554.98	83.299
555.20	83.827
555.42	84.451
555.65	84.614
555.87	85.105
556.10	84.815
556.32	85.956
556.54	85.933
556.77	85.457
556.99	86.140
557.21	86.028
557.44	85.620
557.66	85.427
557.88	85.628
558.11	85.550
558.33	85.716
558.55	86.268
558.78	86.063
559.00	85.540
559.22	85.285
559.44	85.744
559.67	85.317
559.89	85.607
560.11	86.323
560.34	86.743
560.56	86.826
560.78	86.993
561.01	87.167
561.23	86.646
561.45	86.139
561.68	85.616
561.90	85.212
562.12	84.836
562.35	85.161
562.57	84.730
562.79	85.209
563.01	84.440
563.24	84.539
563.46	84.674
563.68	84.373
563.91	84.744
564.13	84.526
564.35	85.214
564.57	84.699
564.80	85.060
565.02	85.086
565.24	85.481
565.47	85.524
565.69	85.722
565.91	85.713
566.13	86.090
566.36	86.530
566.58	86.616
566.80	85.938
567.02	86.462
567.25	86.458
567.47	86.448
567.69	86.219
567.92	86.318
568.14	85.921
568.36	85.535
568.58	85.376
568.81	84.529
569.03	84.995
569.25	84.811
569.47	85.047
569.70	85.115
569.92	84.776
570.14	85.095
570.36	84.856
570.59	85.034
570.81	84.682
571.03	85.360
571.25	85.744
571.47	85.708
571.70	85.986
571.92	85.818
572.14	85.660
572.36	84.961
572.59	85.153
572.81	85.735
573.03	86.126
573.25	85.412
573.48	86.677
573.70	86.367
573.92	86.486
574.14	87.115
574.36	87.689
574.59	87.267
574.81	87.649
575.03	87.593
575.25	87.621
575.47	87.539
575.70	87.442
575.92	88.190
576.14	87.998
576.36	88.270
576.59	88.219
576.81	88.557
577.03	88.136
577.25	87.875
577.47	88.043
577.69	88.743
577.92	89.054
578.14	88.902
578.36	89.303
578.58	88.910
578.80	88.575
579.03	88.437
579.25	88.307
579.47	87.488
579.69	87.807
579.91	87.964
580.14	88.643
580.36	88.531
580.58	88.251
580.80	88.684
581.02	88.171
581.24	87.900
581.47	88.400
581.69	88.412
581.91	88.632
582.13	88.699
582.35	88.047
582.57	88.202
582.79	88.888
583.02	88.897
583.24	88.370
583.46	88.546
583.68	88.597
583.90	89.413
584.12	88.203
584.35	87.719
584.57	87.646
584.79	87.259
585.01	87.905
585.23	88.397
585.45	88.233
585.67	88.803
585.90	89.284
586.12	88.679
586.34	88.685
586.56	88.822
586.78	88.516
587.00	87.908
587.22	87.596
587.44	87.937
587.67	87.945
587.89	87.956
588.11	88.310
588.33	88.429
588.55	88.184
588.77	88.320
588.99	87.669
589.21	88.308
589.43	89.058
589.66	88.683
589.88	88.336
590.10	89.295
590.32	88.494
590.54	88.361
590.76	87.926
590.98	88.394
591.20	88.782
591.42	88.344
591.64	88.646
591.87	89.110
592.09	88.995
592.31	89.460
592.53	89.158
592.75	89.723
592.97	89.848
593.19	89.319
593.41	89.647
593.63	89.880
593.85	89.460
594.07	89.212
594.29	89.963
594.52	90.155
594.74	90.100
594.96	89.292
595.18	89.038
595.40	89.048
595.62	89.138
595.84	89.387
596.06	89.646
596.28	89.424
596.50	89.515
596.72	89.358
596.94	89.802
597.16	89.926
597.38	89.728
597.60	90.463
597.82	90.816
598.05	90.784
598.27	90.511
598.49	90.582
598.71	90.333
598.93	90.112
599.15	89.758
599.37	90.055
599.59	89.307
599.81	89.451
600.03	88.882
600.25	89.502
600.47	89.155
600.69	89.453
600.91	89.699
601.13	89.950
601.35	90.544
601.57	90.350
601.79	90.313
602.01	90.972
602.23	90.645
602.45	90.218
602.67	90.539
602.89	90.437
603.11	90.861
603.33	90.843
603.55	91.538
603.77	91.363
603.99	90.627
604.21	90.197
604.43	90.404
604.65	91.003
604.87	90.329
605.09	90.503
605.31	89.643
605.53	89.757
605.75	89.743
605.97	89.945
606.19	89.657
606.41	89.766
606.63	89.897
606.85	90.021
607.07	90.238
607.29	90.559
607.51	91.421
607.73	91.572
607.95	91.745
608.17	90.861
608.39	90.787
608.61	90.564
608.83	90.937
609.05	90.497
609.27	90.559
609.49	90.509
609.71	90.417
609.93	90.570
610.15	90.165
610.37	89.855
610.59	90.016
610.81	89.783
611.03	89.418
611.24	90.278
611.46	90.326
611.68	90.220
611.90	90.053
612.12	90.334
612.34	90.569
612.56	90.532
612.78	90.032
613.00	90.378
613.22	89.925
613.44	89.973
613.66	90.821
613.88	90.897
614.10	90.851
614.32	91.073
614.54	90.434
614.75	90.380
614.97	90.474
615.19	90.841
615.41	90.621
615.63	90.678
615.85	90.683
616.07	90.721
616.29	91.281
616.51	91.392
616.73	91.262
616.95	90.739
617.17	90.831
617.38	90.945
617.60	91.120
617.82	91.611
618.04	91.130
618.26	91.593
618.48	91.467
618.70	91.603
618.92	91.485
619.14	91.685
619.36	91.831
619.57	92.501
619.79	92.932
620.01	93.246
620.23	92.468
620.45	92.117
620.67	92.044
620.89	92.253
621.11	91.606
621.33	92.348
621.54	92.160
621.76	92.095
621.98	91.978
622.20	92.266
622.42	92.186
622.64	92.675
622.86	93.425
623.07	92.343
623.29	92.357
623.51	92.585
623.73	93.045
623.95	93.673
624.17	93.995
624.39	93.546
624.60	93.662
624.82	93.773
625.04	93.817
625.26	92.882
625.48	93.213
625.70	93.151
625.92	92.826
626.13	93.007
626.35	93.236
626.57	93.304
626.79	93.403
627.01	93.496
627.23	93.432
627.44	93.198
627.66	92.813
627.88	92.533
628.10	93.241
628.32	92.831
628.54	92.655
628.75	93.014
628.97	92.667
629.19	92.095
629.41	91.983
629.63	92.535
629.84	92.642
630.06	92.567
630.28	92.456
630.50	92.675
630.72	92.340
630.94	92.970
631.15	92.682
631.37	91.850
631.59	91.990
631.81	92.222
632.03	92.433
632.24	92.724
632.46	93.097
632.68	93.307
632.90	92.938
633.11	92.801
633.33	92.438
633.55	92.356
633.77	91.979
633.99	92.242
634.20	92.598
634.42	91.960
634.64	91.995
634.86	92.313
635.08	92.459
635.29	92.422
635.51	92.434
635.73	92.057
635.95	91.947
636.16	91.493
636.38	91.336
636.60	91.635
636.82	92.262
637.03	92.648
637.25	92.752
637.47	93.491
637.69	93.342
637.90	92.998
638.12	93.026
638.34	93.056
638.56	93.072
638.77	93.326
638.99	92.755
639.21	93.279
639.43	93.792
639.64	93.414
639.86	93.989
640.08	93.832
640.30	93.812
640.51	93.409
640.73	92.750
640.95	92.640
641.17	92.893
641.38	93.111
641.60	92.381
641.82	92.816
642.03	92.865
642.25	93.161
642.47	93.611
642.69	93.324
642.90	93.327
643.12	93.019
643.34	93.622
643.55	93.593
643.77	93.405
643.99	93.915
644.21	94.067
644.42	93.724
644.64	93.803
644.86	94.492
645.07	94.031
645.29	94.253
645.51	94.557
645.73	94.163
645.94	94.753
646.16	94.857
646.38	94.730
646.59	94.450
646.81	94.836
647.03	94.766
647.24	94.843
647.46	95.125
647.68	95.354
647.89	95.123
648.11	95.623
648.33	95.519
648.54	96.180
648.76	95.805
648.98	95.259
649.19	95.028
649.41	94.282
649.63	94.072
649.84	94.201
650.06	94.989
650.28	94.999
650.49	94.688
650.71	95.648
650.93	95.647
651.14	95.886
651.36	95.579
651.58	95.521
651.79	96.007
652.01	95.704
652.23	95.713
652.44	96.002
652.66	96.479
652.88	96.069
653.09	95.766
653.31	95.216
653.52	94.949
653.74	95.195
653.96	95.523
654.17	95.615
654.39	95.716
654.61	95.784
654.82	96.545
655.04	96.469
655.25	96.254
655.47	96.795
655.69	96.222
655.90	95.383
656.12	94.614
656.34	95.067
656.55	95.535
656.77	95.230
656.98	95.186
657.20	95.131
657.42	94.062
657.63	94.217
657.85	94.901
658.06	94.785
658.28	94.872
658.50	95.233
658.71	95.548
658.93	96.240
659.14	95.772
659.36	96.498
659.58	96.393
659.79	96.158
660.01	96.207
660.22	95.977
660.44	95.731
660.65	95.252
660.87	95.392
661.09	95.297
661.30	95.822
661.52	96.107
661.73	95.562
661.95	94.886
662.16	94.767
662.38	94.639
662.60	94.977
662.81	95.366
663.03	95.929
663.24	95.545
663.46	95.629
663.67	95.777
663.89	96.106
664.11	96.875
664.32	96.981
664.54	96.581
