OOIBase32 Version 2.0.1.4 Data File
++++++++++++++++++++++++++++++++++++
Date: 11-03-2025, 10:26:43
User: Valued Ocean Optics Customer
Spectrometer Serial Number: HR2B216
Spectrometer Channel: Master
Integration Time (msec): 5
Spectra Averaged: 80
Boxcar Smoothing: 0
Correct for Electrical Dark: Disabled
Time Normalized: Disabled
Dual-beam Reference: Disabled
Reference Channel: Master
Temperature: Not acquired
Spectrometer Type: S2000
ADC Type: HR2000
Number of Pixels in File: 2048
Graph Title: 
>>>>>Begin Spectral Data<<<<<
373.12	0.000
373.35	104.245
373.59	98.564
373.82	89.831
374.06	96.385
374.29	152.518
374.53	139.181
374.76	136.054
375.00	112.857
375.23	125.248
375.47	115.625
375.70	116.923
375.94	144.444
376.17	112.390
376.40	108.808
376.64	112.442
376.87	119.249
377.11	148.851
377.34	103.764
377.58	105.581
377.81	115.306
378.05	106.987
378.28	117.703
378.52	112.745
378.75	128.736
378.99	106.829
379.22	139.286
379.45	272.414
379.69	403.774
379.92	310.000
380.16	375.002
380.39	302.353
380.63	317.143
380.86	283.334
381.10	513.512
381.33	340.627
381.56	387.499
381.80	665.390
382.03	406.121
382.27	426.788
382.50	404.842
382.74	273.268
382.97	306.316
383.21	564.000
383.44	1216.673
383.67	765.622
383.91	3733.110
384.14	433.333
384.38	1300.007
384.61	2111.054
384.84	1684.628
385.08	365.624
385.31	444.825
385.55	-5425.500
385.78	605.715
386.02	821.742
386.25	-800.000
386.48	-1116.714
386.72	-957.153
386.95	-823.083
387.19	-11352.778
387.42	-877.794
387.65	-268.833
387.89	-1231.561
388.12	-654.549
388.36	-367.795
388.59	-968.000
388.82	7801.893
389.06	-552.388
389.29	-562.500
389.53	-456.815
389.76	-486.960
389.99	-3612.834
390.23	-910.740
390.46	-612.502
390.70	-506.666
390.93	-232.500
391.16	-413.107
391.40	-205.941
391.63	-228.157
391.87	-506.001
392.10	-159.849
392.33	-167.889
392.57	-115.584
392.80	-224.038
393.03	-185.040
393.27	-147.143
393.50	-132.075
393.74	-121.165
393.97	-98.087
394.20	-147.171
394.44	-168.212
394.67	-247.662
394.90	-158.242
395.14	-143.195
395.37	-142.347
395.60	-109.278
395.84	-120.106
396.07	-96.610
396.31	-117.588
396.54	-104.955
396.77	-99.187
397.01	-136.947
397.24	-106.522
397.47	-88.142
397.71	-77.903
397.94	-106.788
398.17	-96.874
398.41	-102.800
398.64	-86.913
398.87	-76.389
399.11	-74.737
399.34	-58.663
399.57	-79.755
399.81	-66.272
400.04	-81.459
400.27	-67.251
400.51	-82.090
400.74	-64.973
400.97	-66.667
401.21	-61.675
401.44	-49.005
401.67	-69.341
401.91	-61.125
402.14	-72.891
402.37	-51.450
402.61	-58.416
402.84	-50.000
403.07	-31.020
403.31	-39.837
403.54	-45.666
403.77	-58.292
404.00	-53.880
404.24	-45.567
404.47	-53.373
404.70	-50.509
404.94	-47.912
405.17	-51.556
405.40	-51.262
405.64	-49.457
405.87	-48.321
406.10	-40.335
406.34	-38.543
406.57	-35.945
406.80	-49.110
407.03	-46.820
407.27	-57.904
407.50	-44.799
407.73	-40.000
407.97	-44.828
408.20	-47.917
408.43	-38.061
408.66	-41.168
408.90	-34.498
409.13	-37.672
409.36	-32.943
409.60	-31.594
409.83	-40.718
410.06	-24.575
410.29	-30.082
410.53	-28.629
410.76	-30.883
410.99	-33.455
411.22	-27.899
411.46	-30.605
411.69	-25.028
411.92	-25.344
412.16	-31.153
412.39	-32.716
412.62	-26.823
412.85	-24.547
413.09	-24.321
413.32	-23.420
413.55	-25.151
413.78	-26.864
414.02	-26.096
414.25	-24.088
414.48	-23.044
414.71	-29.462
414.95	-27.033
415.18	-22.415
415.41	-18.042
415.64	-18.721
415.88	-24.081
416.11	-20.365
416.34	-25.536
416.57	-22.357
416.80	-19.303
417.04	-22.017
417.27	-22.022
417.50	-18.432
417.73	-22.597
417.97	-23.365
418.20	-14.974
418.43	-18.533
418.66	-17.712
418.90	-19.432
419.13	-17.819
419.36	-17.419
419.59	-12.939
419.82	-12.500
420.06	-11.793
420.29	-12.335
420.52	-11.839
420.75	-17.513
420.98	-15.979
421.22	-16.043
421.45	-15.832
421.68	-12.825
421.91	-16.925
422.15	-13.414
422.38	-15.399
422.61	-13.661
422.84	-11.950
423.07	-12.286
423.31	-14.864
423.54	-12.172
423.77	-12.669
424.00	-12.339
424.23	-12.229
424.46	-15.713
424.70	-13.896
424.93	-14.599
425.16	-11.843
425.39	-12.486
425.62	-8.756
425.86	-10.540
426.09	-14.368
426.32	-10.415
426.55	-12.657
426.78	-12.824
427.01	-11.327
427.25	-10.719
427.48	-12.263
427.71	-10.740
427.94	-9.424
428.17	-10.000
428.40	-8.805
428.64	-8.041
428.87	-9.087
429.10	-7.735
429.33	-10.504
429.56	-9.197
429.79	-8.568
430.03	-10.255
430.26	-10.522
430.49	-8.953
430.72	-9.524
430.95	-11.326
431.18	-10.446
431.42	-8.382
431.65	-10.943
431.88	-9.934
432.11	-10.520
432.34	-9.696
432.57	-9.190
432.80	-7.871
433.04	-7.556
433.27	-6.610
433.50	-8.037
433.73	-6.787
433.96	-9.452
434.19	-8.195
434.42	-5.548
434.65	-5.228
434.89	-7.599
435.12	-5.270
435.35	-5.627
435.58	-6.408
435.81	-5.526
436.04	-6.966
436.27	-5.791
436.50	-6.830
436.74	-7.928
436.97	-7.243
437.20	-7.863
437.43	-6.206
437.66	-7.427
437.89	-4.598
438.12	-4.249
438.35	-6.898
438.58	-6.188
438.82	-6.310
439.05	-5.313
439.28	-6.798
439.51	-6.616
439.74	-5.287
439.97	-5.365
440.20	-5.458
440.43	-6.521
440.66	-5.715
440.89	-5.350
441.12	-4.749
441.36	-4.755
441.59	-4.086
441.82	-4.492
442.05	-4.464
442.28	-5.234
442.51	-4.996
442.74	-5.334
442.97	-4.339
443.20	-4.155
443.43	-5.784
443.66	-3.436
443.89	-4.705
444.13	-5.097
444.36	-4.889
444.59	-4.684
444.82	-4.098
445.05	-4.032
445.28	-5.435
445.51	-5.155
445.74	-4.519
445.97	-4.612
446.20	-3.818
446.43	-3.143
446.66	-3.043
446.89	-3.701
447.12	-4.285
447.35	-3.948
447.58	-3.855
447.81	-4.660
448.05	-4.034
448.28	-4.394
448.51	-2.881
448.74	-3.597
448.97	-3.002
449.20	-3.381
449.43	-3.225
449.66	-3.095
449.89	-3.125
450.12	-3.091
450.35	-3.463
450.58	-3.806
450.81	-3.602
451.04	-2.712
451.27	-3.173
451.50	-2.873
451.73	-3.497
451.96	-3.573
452.19	-2.963
452.42	-3.741
452.65	-3.063
452.88	-2.993
453.11	-3.050
453.34	-2.392
453.57	-2.377
453.80	-2.960
454.03	-2.173
454.26	-2.785
454.49	-3.246
454.72	-3.248
454.95	-3.578
455.18	-3.102
455.41	-3.519
455.64	-3.039
455.87	-2.734
456.10	-2.151
456.33	-2.342
456.56	-2.017
456.79	-2.301
457.02	-3.264
457.25	-2.282
457.48	-2.718
457.71	-3.011
457.94	-2.725
458.17	-2.571
458.40	-2.639
458.63	-2.929
458.86	-2.215
459.09	-2.777
459.32	-2.729
459.55	-2.805
459.78	-2.292
460.01	-2.149
460.24	-1.994
460.47	-2.193
460.70	-2.315
460.93	-2.352
461.16	-2.037
461.39	-1.855
461.62	-2.927
461.85	-2.388
462.08	-1.474
462.31	-2.143
462.54	-2.287
462.77	-2.553
463.00	-2.192
463.22	-1.575
463.45	-1.952
463.68	-1.853
463.91	-2.095
464.14	-1.805
464.37	-1.923
464.60	-2.038
464.83	-1.748
465.06	-1.771
465.29	-2.064
465.52	-1.769
465.75	-1.778
465.98	-1.772
466.21	-1.676
466.44	-1.766
466.67	-1.625
466.90	-1.423
467.12	-1.509
467.35	-1.321
467.58	-1.598
467.81	-1.621
468.04	-1.612
468.27	-1.670
468.50	-1.717
468.73	-1.304
468.96	-1.593
469.19	-1.562
469.42	-0.991
469.65	-1.622
469.87	-1.352
470.10	-1.522
470.33	-1.443
470.56	-1.121
470.79	-1.657
471.02	-1.300
471.25	-1.152
471.48	-1.184
471.71	-1.024
471.94	-1.175
472.17	-0.928
472.39	-1.410
472.62	-1.088
472.85	-1.127
473.08	-1.286
473.31	-1.554
473.54	-0.921
473.77	-1.182
474.00	-0.979
474.23	-0.945
474.45	-0.946
474.68	-0.921
474.91	-1.158
475.14	-1.123
475.37	-0.986
475.60	-0.857
475.83	-0.883
476.06	-1.115
476.28	-1.110
476.51	-0.966
476.74	-0.881
476.97	-0.849
477.20	-0.914
477.43	-0.657
477.66	-0.880
477.88	-0.890
478.11	-0.710
478.34	-0.728
478.57	-0.745
478.80	-0.935
479.03	-0.756
479.26	-0.726
479.48	-0.744
479.71	-0.761
479.94	-0.832
480.17	-0.694
480.40	-0.606
480.63	-0.762
480.86	-0.938
481.08	-0.753
481.31	-0.709
481.54	-0.568
481.77	-0.599
482.00	-0.841
482.23	-0.607
482.45	-0.768
482.68	-0.761
482.91	-0.449
483.14	-0.487
483.37	-0.715
483.60	-0.752
483.82	-0.773
484.05	-0.691
484.28	-0.772
484.51	-0.621
484.74	-0.661
484.96	-0.744
485.19	-0.618
485.42	-0.684
485.65	-0.463
485.88	-0.629
486.10	-0.682
486.33	-0.639
486.56	-0.675
486.79	-0.521
487.02	-0.690
487.25	-0.651
487.47	-0.478
487.70	-0.579
487.93	-0.478
488.16	-0.715
488.39	-0.534
488.61	-0.632
488.84	-0.681
489.07	-0.539
489.30	-0.627
489.52	-0.533
489.75	-0.624
489.98	-0.633
490.21	-0.561
490.44	-0.529
490.66	-0.417
490.89	-0.521
491.12	-0.509
491.35	-0.434
491.57	-0.486
491.80	-0.543
492.03	-0.457
492.26	-0.476
492.49	-0.452
492.71	-0.398
492.94	-0.420
493.17	-0.562
493.40	-0.379
493.62	-0.496
493.85	-0.345
494.08	-0.307
494.31	-0.320
494.53	-0.460
494.76	-0.490
494.99	-0.253
495.22	-0.357
495.44	-0.296
495.67	-0.268
495.90	-0.369
496.13	-0.409
496.35	-0.453
496.58	-0.363
496.81	-0.316
497.04	-0.414
497.26	-0.264
497.49	-0.390
497.72	-0.373
497.95	-0.439
498.17	-0.411
498.40	-0.423
498.63	-0.386
498.85	-0.347
499.08	-0.331
499.31	-0.343
499.54	-0.218
499.76	-0.231
499.99	-0.332
500.22	-0.279
500.44	-0.489
500.67	-0.275
500.90	-0.252
501.13	-0.263
501.35	-0.291
501.58	-0.412
501.81	-0.323
502.03	-0.355
502.26	-0.290
502.49	-0.310
502.72	-0.255
502.94	-0.298
503.17	-0.304
503.40	-0.271
503.62	-0.293
503.85	-0.324
504.08	-0.271
504.30	-0.268
504.53	-0.316
504.76	-0.275
504.98	-0.267
505.21	-0.264
505.44	-0.253
505.67	-0.243
505.89	-0.309
506.12	-0.260
506.35	-0.239
506.57	-0.236
506.80	-0.250
507.03	-0.269
507.25	-0.251
507.48	-0.339
507.71	-0.266
507.93	-0.296
508.16	-0.297
508.39	-0.318
508.61	-0.330
508.84	-0.222
509.07	-0.263
509.29	-0.185
509.52	-0.146
509.75	-0.257
509.97	-0.265
510.20	-0.236
510.43	-0.253
510.65	-0.216
510.88	-0.242
511.10	-0.173
511.33	-0.271
511.56	-0.275
511.78	-0.177
512.01	-0.183
512.24	-0.242
512.46	-0.165
512.69	-0.225
512.92	-0.280
513.14	-0.278
513.37	-0.230
513.59	-0.285
513.82	-0.192
514.05	-0.166
514.27	-0.139
514.50	-0.185
514.73	-0.217
514.95	-0.264
515.18	-0.254
515.40	-0.156
515.63	-0.224
515.86	-0.174
516.08	-0.146
516.31	-0.179
516.54	-0.131
516.76	-0.203
516.99	-0.212
517.21	-0.206
517.44	-0.245
517.67	-0.178
517.89	-0.211
518.12	-0.200
518.34	-0.181
518.57	-0.194
518.80	-0.183
519.02	-0.174
519.25	-0.150
519.47	-0.151
519.70	-0.185
519.93	-0.238
520.15	-0.222
520.38	-0.237
520.60	-0.179
520.83	-0.152
521.05	-0.180
521.28	-0.220
521.51	-0.182
521.73	-0.191
521.96	-0.259
522.18	-0.152
522.41	-0.173
522.63	-0.181
522.86	-0.150
523.09	-0.175
523.31	-0.199
523.54	-0.144
523.76	-0.165
523.99	-0.101
524.21	-0.185
524.44	-0.173
524.67	-0.126
524.89	-0.187
525.12	-0.127
525.34	-0.158
525.57	-0.188
525.79	-0.158
526.02	-0.147
526.24	-0.228
526.47	-0.172
526.69	-0.151
526.92	-0.159
527.15	-0.199
527.37	-0.138
527.60	-0.131
527.82	-0.144
528.05	-0.107
528.27	-0.197
528.50	-0.128
528.72	-0.170
528.95	-0.159
529.17	-0.110
529.40	-0.205
529.62	-0.187
529.85	-0.260
530.07	-0.118
530.30	-0.134
530.52	-0.105
530.75	-0.095
530.98	-0.089
531.20	-0.129
531.43	-0.130
531.65	-0.182
531.88	-0.141
532.10	-0.111
532.33	-0.125
532.55	-0.051
532.78	-0.158
533.00	-0.133
533.23	-0.089
533.45	-0.122
533.68	-0.033
533.90	-0.146
534.13	-0.115
534.35	-0.135
534.58	-0.116
534.80	-0.144
535.03	-0.099
535.25	-0.115
535.47	-0.201
535.70	-0.112
535.92	-0.101
536.15	-0.093
536.37	-0.089
536.60	-0.099
536.82	-0.025
537.05	-0.075
537.27	-0.069
537.50	-0.137
537.72	-0.126
537.95	-0.127
538.17	-0.121
538.40	-0.076
538.62	-0.128
538.85	-0.094
539.07	-0.085
539.29	-0.109
539.52	-0.137
539.74	-0.150
539.97	-0.151
540.19	-0.106
540.42	-0.079
540.64	-0.059
540.87	-0.104
541.09	-0.092
541.32	-0.073
541.54	-0.124
541.76	-0.079
541.99	-0.086
542.21	-0.147
542.44	-0.103
542.66	-0.074
542.89	-0.086
543.11	-0.057
543.33	-0.062
543.56	-0.099
543.78	-0.115
544.01	-0.092
544.23	-0.163
544.46	-0.109
544.68	-0.141
544.90	-0.061
545.13	-0.120
545.35	-0.095
545.58	-0.068
545.80	-0.131
546.03	-0.104
546.25	-0.073
546.47	-0.047
546.70	-0.005
546.92	-0.041
547.15	-0.067
547.37	-0.065
547.59	-0.101
547.82	-0.035
548.04	-0.021
548.27	-0.068
548.49	-0.081
548.71	-0.074
548.94	-0.039
549.16	-0.076
549.39	-0.053
549.61	-0.034
549.83	-0.086
550.06	-0.064
550.28	-0.080
550.50	-0.082
550.73	-0.078
550.95	-0.073
551.18	-0.074
551.40	-0.081
551.62	-0.032
551.85	-0.087
552.07	-0.048
552.29	-0.048
552.52	-0.087
552.74	-0.074
552.97	-0.049
553.19	-0.008
553.41	-0.047
553.64	-0.054
553.86	-0.021
554.08	-0.052
554.31	-0.073
554.53	-0.062
554.75	-0.016
554.98	-0.056
555.20	-0.032
555.42	-0.019
555.65	-0.056
555.87	-0.070
556.10	-0.065
556.32	-0.074
556.54	-0.048
556.77	-0.039
556.99	-0.028
557.21	-0.063
557.44	-0.032
557.66	-0.042
557.88	-0.061
558.11	-0.052
558.33	-0.063
558.55	-0.089
558.78	-0.066
559.00	-0.047
559.22	-0.084
559.44	-0.103
559.67	-0.046
559.89	-0.069
560.11	-0.067
560.34	-0.023
560.56	-0.025
560.78	-0.040
561.01	-0.031
561.23	-0.033
561.45	-0.053
561.68	-0.090
561.90	-0.056
562.12	-0.075
562.35	-0.064
562.57	-0.031
562.79	-0.014
563.01	-0.048
563.24	-0.079
563.46	-0.063
563.68	-0.059
563.91	-0.045
564.13	0.002
564.35	-0.025
564.57	-0.051
564.80	-0.041
565.02	-0.069
565.24	-0.044
565.47	-0.038
565.69	-0.012
565.91	-0.074
566.13	-0.051
566.36	-0.026
566.58	-0.079
566.80	-0.059
567.02	-0.042
567.25	-0.057
567.47	-0.036
567.69	-0.059
567.92	-0.037
568.14	-0.031
568.36	-0.049
568.58	-0.024
568.81	-0.028
569.03	-0.042
569.25	-0.076
569.47	-0.034
569.70	-0.031
569.92	-0.050
570.14	-0.054
570.36	-0.031
570.59	-0.033
570.81	-0.034
571.03	-0.011
571.25	-0.055
571.47	-0.033
571.70	-0.018
571.92	-0.060
572.14	-0.080
572.36	-0.068
572.59	-0.018
572.81	-0.024
573.03	-0.050
573.25	-0.069
573.48	-0.048
573.70	-0.023
573.92	-0.034
574.14	-0.026
574.36	-0.040
574.59	-0.044
574.81	-0.045
575.03	-0.043
575.25	-0.023
575.47	-0.003
575.70	-0.036
575.92	-0.033
576.14	-0.016
576.36	-0.053
576.59	-0.030
576.81	-0.013
577.03	-0.015
577.25	-0.027
577.47	-0.048
577.69	-0.031
577.92	-0.055
578.14	-0.062
578.36	-0.030
578.58	0.007
578.80	0.014
579.03	-0.048
579.25	-0.069
579.47	-0.021
579.69	-0.015
579.91	0.010
580.14	-0.018
580.36	0.020
580.58	0.028
580.80	-0.027
581.02	-0.041
581.24	-0.011
581.47	-0.042
581.69	-0.032
581.91	-0.048
582.13	-0.005
582.35	-0.044
582.57	-0.034
582.79	-0.027
583.02	0.002
583.24	-0.027
583.46	-0.029
583.68	-0.004
583.90	-0.010
584.12	0.015
584.35	-0.018
584.57	0.004
584.79	-0.028
585.01	-0.022
585.23	0.003
585.45	-0.013
585.67	-0.010
585.90	-0.005
586.12	-0.014
586.34	0.014
586.56	-0.013
586.78	-0.020
587.00	-0.010
587.22	-0.007
587.44	-0.022
587.67	-0.040
587.89	-0.014
588.11	-0.010
588.33	-0.002
588.55	0.025
588.77	0.016
588.99	-0.002
589.21	0.027
589.43	0.014
589.66	-0.008
589.88	-0.031
590.10	0.013
590.32	-0.015
590.54	-0.018
590.76	0.004
590.98	-0.005
591.20	0.001
591.42	-0.001
591.64	-0.013
591.87	0.005
592.09	0.016
592.31	0.016
592.53	-0.009
592.75	0.006
592.97	-0.001
593.19	-0.004
593.41	-0.007
593.63	0.004
593.85	0.008
594.07	0.028
594.29	-0.015
594.52	0.020
594.74	0.004
594.96	0.014
595.18	-0.018
595.40	-0.019
595.62	-0.009
595.84	0.014
596.06	0.027
596.28	-0.004
596.50	-0.004
596.72	-0.024
596.94	0.001
597.16	0.016
597.38	0.013
597.60	0.028
597.82	0.014
598.05	-0.017
598.27	0.042
598.49	0.014
598.71	0.010
598.93	0.004
599.15	0.034
599.37	0.004
599.59	0.012
599.81	0.017
600.03	0.021
600.25	0.019
600.47	0.009
600.69	0.000
600.91	0.028
601.13	0.015
601.35	0.026
601.57	0.037
601.79	0.025
602.01	0.041
602.23	0.047
602.45	0.059
602.67	0.031
602.89	0.030
603.11	0.003
603.33	0.052
603.55	0.046
603.77	0.035
603.99	0.025
604.21	0.042
604.43	0.012
604.65	0.034
604.87	0.028
605.09	0.035
605.31	0.009
605.53	0.045
605.75	0.050
605.97	0.034
606.19	0.031
606.41	0.057
606.63	0.056
606.85	0.040
607.07	0.072
607.29	0.074
607.51	0.065
607.73	0.079
607.95	0.086
608.17	0.080
608.39	0.114
608.61	0.079
608.83	0.120
609.05	0.099
609.27	0.134
609.49	0.124
609.71	0.167
609.93	0.110
610.15	0.124
610.37	0.146
610.59	0.184
610.81	0.220
611.03	0.195
611.24	0.191
611.46	0.232
611.68	0.245
611.90	0.251
612.12	0.249
612.34	0.259
612.56	0.272
612.78	0.308
613.00	0.300
613.22	0.300
613.44	0.349
613.66	0.349
613.88	0.362
614.10	0.404
614.32	0.401
614.54	0.413
614.75	0.430
614.97	0.437
615.19	0.466
615.41	0.468
615.63	0.472
615.85	0.514
616.07	0.545
616.29	0.568
616.51	0.567
616.73	0.560
616.95	0.628
617.17	0.635
617.38	0.662
617.60	0.676
617.82	0.724
618.04	0.756
618.26	0.754
618.48	0.794
618.70	0.808
618.92	0.873
619.14	0.899
619.36	0.935
619.57	0.970
619.79	1.000
620.01	1.055
620.23	1.078
620.45	1.125
620.67	1.164
620.89	1.254
621.11	1.276
621.33	1.296
621.54	1.363
621.76	1.450
621.98	1.491
622.20	1.525
622.42	1.608
622.64	1.716
622.86	1.736
623.07	1.836
623.29	1.917
623.51	1.998
623.73	2.081
623.95	2.151
624.17	2.288
624.39	2.400
624.60	2.539
624.82	2.681
625.04	2.779
625.26	2.923
625.48	3.040
625.70	3.263
625.92	3.406
626.13	3.574
626.35	3.789
626.57	3.949
626.79	4.184
627.01	4.468
627.23	4.759
627.44	5.116
627.66	5.496
627.88	5.849
628.10	6.322
628.32	6.796
628.54	7.291
628.75	7.922
628.97	8.564
629.19	9.379
629.41	10.138
629.63	10.984
629.84	11.745
630.06	12.538
630.28	13.179
630.50	13.770
630.72	14.319
630.94	14.859
631.15	15.349
631.37	15.796
631.59	16.173
631.81	16.598
632.03	17.021
632.24	17.443
632.46	17.903
632.68	18.381
632.90	18.847
633.11	19.292
633.33	19.700
633.55	20.123
633.77	20.574
633.99	21.044
634.20	21.633
634.42	22.133
634.64	22.703
634.86	23.296
635.08	23.891
635.29	24.582
635.51	25.064
635.73	25.854
635.95	26.652
636.16	27.475
636.38	28.398
636.60	29.268
636.82	30.064
637.03	30.969
637.25	31.944
637.47	33.048
637.69	34.372
637.90	35.927
638.12	37.456
638.34	38.908
638.56	40.157
638.77	41.110
638.99	41.781
639.21	42.563
639.43	43.219
639.64	43.645
639.86	44.284
640.08	44.759
640.30	45.167
640.51	45.425
640.73	45.410
640.95	45.470
641.17	45.577
641.38	45.706
641.60	45.733
641.82	45.785
642.03	45.943
642.25	46.057
642.47	46.210
642.69	46.374
642.90	46.278
643.12	46.140
643.34	46.160
643.55	46.197
643.77	46.228
643.99	46.362
644.21	46.339
644.42	46.339
644.64	46.360
644.86	46.302
645.07	46.247
645.29	46.413
645.51	46.642
645.73	46.879
645.94	46.721
646.16	46.740
646.38	46.879
646.59	46.985
646.81	47.182
647.03	47.223
647.24	47.335
647.46	47.520
647.68	47.578
647.89	47.365
648.11	47.236
648.33	47.145
648.54	47.253
648.76	47.422
648.98	47.372
649.19	47.302
649.41	47.511
649.63	47.635
649.84	47.872
650.06	48.028
650.28	48.050
650.49	47.878
650.71	47.851
650.93	47.531
651.14	47.690
651.36	47.765
651.58	47.692
651.79	47.548
652.01	47.534
652.23	47.521
652.44	47.622
652.66	47.735
652.88	47.817
653.09	47.984
653.31	47.701
653.52	47.651
653.74	47.648
653.96	47.650
654.17	47.679
654.39	47.904
654.61	47.981
654.82	48.131
655.04	48.176
655.25	48.249
655.47	48.212
655.69	48.231
655.90	48.319
656.12	48.259
656.34	48.085
656.55	47.915
656.77	48.003
656.98	48.058
657.20	48.161
657.42	48.128
657.63	48.016
657.85	48.089
658.06	48.095
658.28	48.103
658.50	47.936
658.71	47.787
658.93	47.858
659.14	47.888
659.36	48.219
659.58	48.566
659.79	48.820
660.01	48.549
660.22	48.399
660.44	48.114
660.65	47.997
660.87	48.004
661.09	48.127
661.30	48.338
661.52	48.380
661.73	48.324
661.95	48.313
662.16	48.394
662.38	48.452
662.60	48.589
662.81	48.554
663.03	48.600
663.24	48.690
663.46	48.682
