OOIBase32 Version 2.0.1.4 Data File
++++++++++++++++++++++++++++++++++++
Date: 11-03-2025, 09:47:23
User: Valued Ocean Optics Customer
Spectrometer Serial Number: HR2B216
Spectrometer Channel: Master
Integration Time (msec): 5
Spectra Averaged: 80
Boxcar Smoothing: 0
Correct for Electrical Dark: Disabled
Time Normalized: Disabled
Dual-beam Reference: Disabled
Reference Channel: Master
Temperature: Not acquired
Spectrometer Type: S2000
ADC Type: HR2000
Number of Pixels in File: 2048
Graph Title: 
>>>>>Begin Spectral Data<<<<<
373.12	0.000
373.35	121.350
373.59	122.588
373.82	123.450
374.06	124.100
374.29	125.100
374.53	126.012
374.76	127.200
375.00	128.025
375.23	128.962
375.47	129.475
375.70	130.150
375.94	130.750
376.17	131.300
376.40	130.750
376.64	132.350
376.87	131.663
377.11	131.725
377.34	131.712
377.58	131.550
377.81	131.650
378.05	131.438
378.28	131.075
378.52	131.300
378.75	131.637
378.99	131.387
379.22	131.663
379.45	133.675
379.69	133.350
379.92	133.163
380.16	133.175
380.39	133.400
380.63	133.600
380.86	133.425
381.10	133.575
381.33	134.125
381.56	134.125
381.80	133.775
382.03	133.900
382.27	134.450
382.50	134.175
382.74	133.913
382.97	134.313
383.21	134.725
383.44	134.100
383.67	133.837
383.91	134.438
384.14	135.225
384.38	134.750
384.61	135.550
384.84	135.387
385.08	135.313
385.31	135.325
385.55	135.337
385.78	135.400
386.02	135.475
386.25	135.563
386.48	135.863
386.72	135.337
386.95	136.250
387.19	135.950
387.42	136.400
387.65	136.113
387.89	136.712
388.12	136.650
388.36	136.500
388.59	136.350
388.82	136.863
389.06	136.613
389.29	137.413
389.53	137.188
389.76	137.587
389.99	137.313
390.23	137.663
390.46	137.650
390.70	138.250
390.93	138.100
391.16	138.238
391.40	137.250
391.63	138.038
391.87	138.600
392.10	138.688
392.33	138.738
392.57	138.700
392.80	138.288
393.03	139.012
393.27	138.663
393.50	138.875
393.74	139.038
393.97	139.100
394.20	139.550
394.44	139.650
394.67	139.525
394.90	139.975
395.14	139.762
395.37	140.563
395.60	140.137
395.84	140.350
396.07	140.938
396.31	140.462
396.54	140.725
396.77	140.788
397.01	140.925
397.24	141.350
397.47	141.600
397.71	141.438
397.94	141.087
398.17	141.663
398.41	141.837
398.64	141.663
398.87	141.212
399.11	142.288
399.34	141.988
399.57	142.200
399.81	142.100
400.04	142.400
400.27	142.163
400.51	143.438
400.74	142.913
400.97	143.113
401.21	143.325
401.44	143.788
401.67	143.462
401.91	144.125
402.14	143.863
402.37	144.387
402.61	144.350
402.84	144.038
403.07	144.738
403.31	144.637
403.54	144.900
403.77	144.600
404.00	145.300
404.24	145.525
404.47	145.875
404.70	145.975
404.94	145.825
405.17	146.113
405.40	146.200
405.64	146.637
405.87	146.375
406.10	146.500
406.34	146.900
406.57	146.975
406.80	147.137
407.03	146.938
407.27	147.100
407.50	147.413
407.73	147.887
407.97	147.438
408.20	147.775
408.43	148.550
408.66	148.137
408.90	148.413
409.13	148.700
409.36	148.887
409.60	148.238
409.83	149.137
410.06	149.375
410.29	149.050
410.53	149.200
410.76	149.850
410.99	149.975
411.22	150.425
411.46	150.025
411.69	150.413
411.92	151.175
412.16	151.500
412.39	150.850
412.62	151.200
412.85	151.850
413.09	152.238
413.32	152.488
413.55	153.100
413.78	152.313
414.02	152.813
414.25	153.225
414.48	153.625
414.71	153.262
414.95	153.938
415.18	153.288
415.41	154.200
415.64	154.400
415.88	154.300
416.11	155.500
416.34	154.650
416.57	156.863
416.80	156.587
417.04	155.238
417.27	155.962
417.50	155.813
417.73	157.462
417.97	157.325
418.20	157.975
418.43	158.275
418.66	158.163
418.90	159.438
419.13	158.125
419.36	158.675
419.59	160.075
419.82	159.363
420.06	159.125
420.29	159.700
420.52	160.363
420.75	161.313
420.98	160.875
421.22	160.175
421.45	162.600
421.68	162.413
421.91	162.137
422.15	161.475
422.38	162.038
422.61	163.288
422.84	165.150
423.07	163.137
423.31	163.913
423.54	165.475
423.77	165.613
424.00	164.750
424.23	166.050
424.46	166.887
424.70	168.200
424.93	165.250
425.16	169.000
425.39	166.663
425.62	169.188
425.86	168.113
426.09	168.337
426.32	167.700
426.55	168.675
426.78	169.262
427.01	168.663
427.25	171.375
427.48	171.650
427.71	169.375
427.94	170.050
428.17	172.375
428.40	173.613
428.64	171.025
428.87	172.613
429.10	173.175
429.33	174.800
429.56	174.738
429.79	175.913
430.03	173.725
430.26	175.012
430.49	174.038
430.72	176.800
430.95	175.038
431.18	177.525
431.42	176.675
431.65	179.325
431.88	180.175
432.11	179.400
432.34	176.512
432.57	178.875
432.80	179.012
433.04	178.738
433.27	180.325
433.50	180.500
433.73	182.650
433.96	182.500
434.19	184.337
434.42	185.488
434.65	185.950
434.89	185.238
435.12	185.038
435.35	186.850
435.58	186.413
435.81	186.625
436.04	187.462
436.27	188.938
436.50	188.063
436.74	189.762
436.97	188.387
437.20	189.663
437.43	189.500
437.66	192.525
437.89	191.825
438.12	196.100
438.35	192.438
438.58	193.738
438.82	196.850
439.05	197.325
439.28	195.625
439.51	198.538
439.74	196.587
439.97	198.300
440.20	202.200
440.43	202.200
440.66	202.525
440.89	202.913
441.12	202.712
441.36	203.850
441.59	207.225
441.82	208.262
442.05	205.475
442.28	208.087
442.51	205.387
442.74	208.663
442.97	208.788
443.20	206.438
443.43	207.700
443.66	213.750
443.89	216.675
444.13	209.813
444.36	210.012
444.59	214.150
444.82	216.450
445.05	214.387
445.28	216.512
445.51	221.550
445.74	216.962
445.97	216.525
446.20	218.875
446.43	218.262
446.66	222.650
446.89	218.762
447.12	219.413
447.35	223.725
447.58	228.375
447.81	222.488
448.05	224.913
448.28	223.500
448.51	226.188
448.74	226.313
448.97	225.938
449.20	229.887
449.43	225.038
449.66	227.262
449.89	228.350
450.12	229.738
450.35	224.738
450.58	231.900
450.81	236.650
451.04	240.000
451.27	231.350
451.50	235.950
451.73	235.425
451.96	237.800
452.19	235.775
452.42	238.438
452.65	243.663
452.88	240.837
453.11	242.075
453.34	245.863
453.57	239.800
453.80	249.175
454.03	245.025
454.26	243.563
454.49	243.538
454.72	246.725
454.95	249.700
455.18	248.400
455.41	245.837
455.64	249.850
455.87	248.962
456.10	250.163
456.33	257.700
456.56	256.675
456.79	259.212
457.02	256.375
457.25	252.137
457.48	251.262
457.71	263.388
457.94	268.125
458.17	265.788
458.40	261.112
458.63	261.237
458.86	266.388
459.09	268.725
459.32	267.063
459.55	274.212
459.78	272.188
460.01	268.962
460.24	277.763
460.47	272.650
460.70	269.875
460.93	271.413
461.16	282.788
461.39	279.575
461.62	276.800
461.85	283.788
462.08	285.938
462.31	283.237
462.54	286.550
462.77	284.175
463.00	285.425
463.22	288.175
463.45	290.150
463.68	293.025
463.91	297.938
464.14	297.712
464.37	298.638
464.60	300.263
464.83	299.900
465.06	309.987
465.29	307.600
465.52	305.462
465.75	305.337
465.98	312.388
466.21	315.800
466.44	314.325
466.67	311.450
466.90	322.075
467.12	321.063
467.35	324.200
467.58	321.525
467.81	325.513
468.04	326.050
468.27	326.900
468.50	330.750
468.73	337.413
468.96	333.438
469.19	344.225
469.42	341.000
469.65	344.950
469.87	345.638
470.10	348.087
470.33	352.700
470.56	356.163
470.79	357.975
471.02	358.275
471.25	363.150
471.48	368.038
471.71	369.050
471.94	368.600
472.17	380.225
472.39	380.587
472.62	382.825
472.85	381.413
473.08	386.712
473.31	381.788
473.54	393.375
473.77	396.750
474.00	404.825
474.23	399.725
474.45	408.975
474.68	406.000
474.91	406.038
475.14	416.288
475.37	417.438
475.60	416.563
475.83	423.325
476.06	423.150
476.28	431.587
476.51	434.038
476.74	437.425
476.97	441.100
477.20	440.987
477.43	446.125
477.66	445.313
477.88	456.938
478.11	458.950
478.34	462.200
478.57	468.900
478.80	465.725
479.03	469.663
479.26	472.663
479.48	475.625
479.71	478.700
479.94	485.438
480.17	488.462
480.40	488.500
480.63	497.663
480.86	497.038
481.08	500.075
481.31	506.450
481.54	508.313
481.77	512.612
482.00	509.087
482.23	514.950
482.45	518.200
482.68	523.338
482.91	529.225
483.14	536.838
483.37	539.850
483.60	541.300
483.82	541.612
484.05	545.400
484.28	550.638
484.51	552.400
484.74	552.162
484.96	556.775
485.19	563.250
485.42	566.650
485.65	570.225
485.88	572.563
486.10	579.875
486.33	583.075
486.56	583.638
486.79	583.612
487.02	594.537
487.25	602.588
487.47	600.287
487.70	600.575
487.93	604.575
488.16	612.125
488.38	615.200
488.61	614.275
488.84	618.825
489.07	621.750
489.30	628.412
489.52	628.737
489.75	636.300
489.98	640.688
490.21	647.200
490.44	648.100
490.66	651.063
490.89	653.775
491.12	661.037
491.35	666.925
491.57	667.800
491.80	664.188
492.03	670.612
492.26	677.362
492.49	679.200
492.71	681.938
492.94	685.475
493.17	692.875
493.40	694.275
493.62	697.362
493.85	699.338
494.08	705.537
494.31	707.263
494.53	709.350
494.76	717.125
494.99	723.563
495.22	728.338
495.44	733.550
495.67	736.638
495.90	738.013
496.13	739.287
496.35	749.112
496.58	753.987
496.81	754.725
497.04	758.475
497.26	766.362
497.49	768.350
497.72	770.200
497.95	771.575
498.17	779.875
498.40	788.362
498.63	788.563
498.85	788.263
499.08	790.275
499.31	798.487
499.54	807.063
499.76	809.800
499.99	817.713
500.22	817.287
500.44	821.787
500.67	827.487
500.90	823.700
501.13	830.775
501.35	833.400
501.58	837.188
501.81	838.400
502.03	837.725
502.26	847.088
502.49	852.963
502.72	862.138
502.94	866.737
503.17	865.925
503.40	868.237
503.62	880.713
503.85	881.975
504.08	888.150
504.30	886.162
504.53	891.650
504.76	895.025
504.98	896.500
505.21	903.513
505.44	895.925
505.67	902.200
505.89	914.487
506.12	925.188
506.35	927.287
506.57	930.987
506.80	934.112
507.03	947.950
507.25	939.750
507.48	944.438
507.71	949.550
507.93	958.450
508.16	963.650
508.39	963.975
508.61	968.425
508.84	972.900
509.07	972.775
509.29	975.487
509.52	972.700
509.75	974.400
509.97	975.750
510.20	986.563
510.43	998.162
510.65	999.075
510.88	1003.938
511.10	1010.075
511.33	1017.875
511.56	1010.175
511.78	1010.588
512.01	1010.550
512.24	1016.275
512.46	1028.675
512.69	1029.250
512.92	1031.175
513.14	1029.262
513.37	1032.600
513.59	1039.137
513.82	1040.188
514.05	1037.200
514.27	1042.575
514.50	1050.000
514.73	1055.762
514.95	1060.912
515.18	1063.275
515.40	1065.637
515.63	1070.475
515.86	1075.338
516.08	1077.838
516.31	1080.313
516.54	1085.063
516.76	1089.475
516.99	1090.887
517.21	1094.213
517.44	1097.338
517.67	1099.037
517.89	1102.637
518.12	1122.188
518.34	1114.238
518.57	1109.350
518.80	1116.813
519.02	1113.262
519.25	1122.313
519.47	1129.463
519.70	1130.900
519.93	1127.175
520.15	1134.200
520.38	1129.650
520.60	1142.100
520.83	1139.600
521.05	1148.775
521.28	1149.537
521.51	1156.438
521.73	1168.613
521.96	1162.813
522.18	1162.600
522.41	1164.988
522.63	1170.150
522.86	1176.975
523.09	1183.037
523.31	1185.050
523.54	1190.637
523.76	1199.300
523.99	1194.438
524.21	1200.975
524.44	1199.412
524.67	1197.475
524.89	1206.650
525.12	1208.325
525.34	1216.963
525.57	1221.100
525.79	1217.800
526.02	1227.175
526.24	1231.662
526.47	1246.262
526.69	1248.463
526.92	1249.225
527.15	1249.000
527.37	1253.488
527.60	1269.575
527.82	1268.387
528.05	1273.688
528.27	1272.575
528.50	1273.850
528.72	1277.825
528.95	1281.137
529.17	1283.800
529.40	1286.625
529.62	1283.375
529.85	1291.063
530.07	1293.100
530.30	1293.063
530.52	1299.863
530.75	1305.350
530.97	1310.037
531.20	1323.475
531.43	1322.787
531.65	1332.725
531.88	1339.250
532.10	1335.850
532.33	1343.600
532.55	1344.600
532.78	1351.475
533.00	1350.537
533.23	1358.963
533.45	1361.863
533.68	1369.475
533.90	1376.875
534.13	1386.925
534.35	1395.125
534.58	1406.425
534.80	1412.912
535.03	1418.125
535.25	1415.125
535.47	1412.675
535.70	1412.925
535.92	1429.875
536.15	1416.813
536.37	1425.613
536.60	1437.875
536.82	1430.550
537.05	1436.412
537.27	1447.225
537.50	1453.613
537.72	1469.488
537.95	1480.738
538.17	1497.550
538.40	1500.375
538.62	1494.675
538.85	1502.950
539.07	1502.338
539.29	1503.225
539.52	1515.850
539.74	1531.100
539.97	1533.000
540.19	1532.025
540.42	1529.287
540.64	1539.275
540.87	1537.850
541.09	1543.950
541.32	1543.113
541.54	1546.438
541.76	1562.137
541.99	1576.438
542.21	1580.000
542.44	1596.988
542.66	1593.650
542.89	1602.463
543.11	1613.613
543.33	1625.463
543.56	1638.762
543.78	1639.762
544.01	1630.188
544.23	1642.850
544.46	1643.338
544.68	1652.225
544.90	1644.675
545.13	1650.425
545.35	1652.900
545.58	1667.800
545.80	1663.838
546.03	1681.975
546.25	1676.287
546.47	1678.613
546.70	1696.963
546.92	1696.900
547.15	1703.500
547.37	1706.675
547.59	1704.275
547.82	1715.125
548.04	1730.800
548.27	1738.825
548.49	1741.313
548.71	1747.475
548.94	1748.213
549.16	1755.113
549.39	1751.262
549.61	1757.088
549.83	1763.950
550.06	1759.625
550.28	1768.200
550.50	1776.213
550.73	1791.363
550.95	1787.025
551.18	1796.488
551.40	1795.300
551.62	1801.037
551.85	1807.213
552.07	1818.325
552.29	1815.762
552.52	1821.088
552.74	1819.125
552.97	1826.963
553.19	1835.625
553.41	1850.050
553.64	1847.188
553.86	1848.025
554.08	1836.975
554.31	1839.012
554.53	1844.425
554.75	1838.800
554.98	1856.850
555.20	1852.225
555.42	1860.850
555.65	1878.275
555.87	1869.875
556.10	1881.188
556.32	1892.813
556.54	1891.450
556.77	1888.238
556.99	1890.225
557.21	1888.075
557.44	1900.050
557.66	1901.675
557.88	1900.625
558.11	1898.738
558.33	1900.713
558.55	1902.775
558.78	1909.887
559.00	1895.613
559.22	1910.813
559.44	1911.300
559.67	1918.287
559.89	1913.375
560.11	1921.750
560.34	1931.588
560.56	1931.438
560.78	1936.137
561.01	1942.500
561.23	1944.650
561.45	1966.113
561.68	1959.488
561.90	1963.175
562.12	1970.500
562.35	1950.500
562.57	1972.088
562.79	1982.037
563.01	1967.162
563.24	1979.775
563.46	1984.787
563.68	1976.363
563.91	1979.575
564.13	1978.700
564.35	1996.200
564.57	1998.338
564.80	2000.150
565.02	2006.787
565.24	2016.387
565.47	2021.325
565.69	2026.950
565.91	2030.738
566.13	2022.850
566.36	2007.075
566.58	2010.387
566.80	2033.675
567.02	2043.575
567.25	2035.463
567.47	2037.275
567.69	2064.075
567.92	2051.025
568.14	2054.337
568.36	2066.100
568.58	2076.575
568.81	2076.975
569.03	2070.938
569.25	2079.300
569.47	2090.375
569.70	2090.750
569.92	2090.000
570.14	2094.275
570.36	2097.075
570.59	2090.788
570.81	2117.512
571.03	2121.488
571.25	2117.375
571.47	2129.025
571.70	2127.238
571.92	2123.500
572.14	2135.800
572.36	2134.063
572.59	2149.587
572.81	2167.012
573.03	2151.113
573.25	2167.413
573.48	2179.075
573.70	2186.188
573.92	2204.400
574.14	2206.275
574.36	2200.462
574.59	2183.837
574.81	2175.113
575.03	2167.450
575.25	2187.788
575.47	2205.462
575.70	2194.625
575.92	2199.438
576.14	2190.500
576.36	2215.800
576.59	2231.375
576.81	2229.975
577.03	2229.450
577.25	2233.000
577.47	2233.988
577.69	2241.400
577.92	2236.600
578.14	2247.925
578.36	2251.063
578.58	2257.012
578.80	2247.012
579.03	2245.813
579.25	2262.863
579.47	2280.650
579.69	2280.712
579.91	2300.525
580.14	2298.163
580.36	2309.788
580.58	2298.500
580.80	2308.000
581.02	2327.913
581.24	2319.288
581.47	2325.725
581.69	2335.238
581.91	2335.625
582.13	2349.188
582.35	2359.738
582.57	2374.650
582.79	2358.125
583.02	2352.813
583.24	2373.725
583.46	2367.938
583.68	2378.188
583.90	2387.712
584.12	2403.613
584.35	2420.413
584.57	2412.563
584.79	2430.200
585.01	2429.950
585.23	2422.175
585.45	2420.288
585.67	2424.262
585.90	2446.962
586.12	2434.400
586.34	2476.950
586.56	2479.375
586.78	2498.563
587.00	2478.512
587.22	2481.300
587.44	2486.738
587.67	2493.400
587.89	2493.500
588.11	2521.762
588.33	2506.413
588.55	2503.962
588.77	2515.150
588.99	2521.788
589.21	2508.438
589.43	2546.538
589.66	2565.000
589.88	2574.400
590.10	2585.563
590.32	2578.962
590.54	2562.375
590.76	2560.725
590.98	2573.250
591.20	2574.212
591.42	2558.813
591.64	2555.075
591.87	2581.137
592.09	2583.500
592.31	2620.050
592.53	2614.488
592.75	2611.587
592.97	2621.512
593.19	2612.650
593.41	2623.975
593.63	2632.563
593.85	2627.225
594.07	2659.438
594.29	2649.538
594.52	2660.275
594.74	2667.375
594.96	2650.725
595.18	2680.350
595.40	2690.238
595.62	2700.300
595.84	2706.837
596.06	2712.038
596.28	2718.325
596.50	2711.625
596.72	2705.587
596.94	2724.625
597.16	2739.538
597.38	2755.587
597.60	2748.450
597.82	2738.712
598.05	2735.387
598.27	2719.425
598.49	2725.375
598.71	2728.813
598.93	2737.438
599.15	2750.613
599.37	2742.375
599.59	2751.012
599.81	2749.887
600.03	2754.275
600.25	2770.275
600.47	2778.775
600.69	2769.950
600.91	2798.262
601.13	2797.175
601.35	2813.462
601.57	2833.600
601.79	2832.450
602.01	2848.125
602.23	2833.875
602.45	2830.613
602.67	2821.025
602.89	2808.788
603.11	2826.100
603.33	2818.475
603.55	2849.788
603.77	2856.650
603.99	2859.313
604.21	2861.250
604.43	2861.413
604.65	2859.637
604.87	2885.350
605.09	2876.137
605.31	2886.837
605.53	2872.325
605.75	2855.238
605.97	2846.613
606.19	2854.337
606.41	2860.025
606.63	2869.313
606.85	2884.637
607.07	2892.837
607.29	2917.075
607.51	2944.825
607.73	2939.525
607.95	2943.488
608.17	2938.575
608.39	2921.225
608.61	2931.813
608.83	2931.075
609.05	2930.887
609.27	2915.538
609.49	2920.825
609.71	2905.813
609.93	2931.012
610.15	2923.925
610.37	2940.387
610.59	2923.575
610.81	2946.137
611.03	2936.788
611.24	2944.913
611.46	2947.175
611.68	2947.462
611.90	2951.900
612.12	2936.038
612.34	2938.512
612.56	2973.000
612.78	2968.325
613.00	2978.063
613.22	2988.012
613.44	2992.425
613.66	2974.675
613.88	2968.288
614.10	2986.587
614.32	2981.325
614.54	3007.413
614.75	3001.712
614.97	2995.775
615.19	2994.275
615.41	2988.625
615.63	2987.988
615.85	3002.175
616.07	3006.700
616.29	3007.913
616.51	2998.475
616.73	2989.688
616.95	2989.750
617.17	3001.000
617.38	3004.688
617.60	3022.438
617.82	3034.188
618.04	3019.550
618.26	3029.613
618.48	3015.637
618.70	3049.125
618.92	3026.488
619.14	3055.675
619.36	3057.975
619.57	3042.387
619.79	3037.025
620.01	3032.313
620.23	3038.563
620.45	3058.087
620.67	3068.337
620.89	3062.913
621.11	3083.550
621.33	3102.813
621.54	3091.450
621.76	3089.200
621.98	3097.387
622.20	3120.837
622.42	3113.038
622.64	3127.038
622.86	3120.913
623.07	3084.012
623.29	3093.300
623.51	3088.175
623.73	3104.913
623.95	3101.475
624.17	3117.712
624.39	3105.675
624.60	3104.137
624.82	3084.712
625.04	3069.813
625.26	3098.075
625.48	3089.250
625.70	3115.188
625.92	3117.087
626.13	3123.400
626.35	3129.113
626.57	3103.700
626.79	3111.212
627.01	3093.738
627.23	3107.150
627.44	3131.700
627.66	3132.387
627.88	3127.900
628.10	3121.063
628.32	3127.738
628.54	3135.188
628.75	3142.863
628.97	3140.837
629.19	3169.925
629.41	3181.488
629.63	3184.475
629.84	3174.012
630.06	3161.725
630.28	3155.563
630.50	3177.675
630.72	3176.788
630.94	3190.800
631.15	3184.825
631.37	3183.075
631.59	3193.825
631.81	3180.337
632.03	3182.863
632.24	3198.475
632.46	3232.550
632.68	3219.375
632.90	3247.025
633.11	3218.137
633.33	3214.462
633.55	3213.825
633.77	3235.375
633.99	3221.413
634.20	3251.913
634.42	3228.600
634.64	3242.400
634.86	3220.925
635.08	3216.550
635.29	3223.675
635.51	3227.063
635.73	3244.413
635.95	3219.988
636.16	3218.075
636.38	3225.438
636.60	3196.813
636.82	3206.887
637.03	3203.212
637.25	3230.988
637.47	3242.950
637.69	3269.025
637.90	3255.000
638.12	3234.375
638.34	3228.488
638.56	3226.063
638.77	3233.525
638.99	3238.712
639.21	3254.063
639.43	3261.462
639.64	3255.600
639.86	3282.887
