OOIBase32 Version 2.0.1.4 Data File
++++++++++++++++++++++++++++++++++++
Date: 11-03-2025, 09:48:19
User: Valued Ocean Optics Customer
Spectrometer Serial Number: HR2B216
Spectrometer Channel: Master
Integration Time (msec): 5
Spectra Averaged: 80
Boxcar Smoothing: 0
Correct for Electrical Dark: Disabled
Time Normalized: Disabled
Dual-beam Reference: Disabled
Reference Channel: Master
Temperature: Not acquired
Spectrometer Type: S2000
ADC Type: HR2000
Number of Pixels in File: 2048
Graph Title: 
>>>>>Begin Spectral Data<<<<<
373.12	0.000
373.35	121.713
373.59	122.075
373.82	122.863
374.06	123.725
374.29	125.700
374.53	125.625
374.76	126.637
375.00	128.175
375.23	128.900
375.47	129.350
375.70	129.450
375.94	130.050
376.17	130.738
376.40	130.600
376.64	131.438
376.87	131.188
377.11	130.925
377.34	130.925
377.58	131.163
377.81	130.775
378.05	131.200
378.28	130.313
378.52	131.063
378.75	131.113
378.99	130.375
379.22	130.525
379.45	131.413
379.69	131.113
379.92	131.363
380.16	131.238
380.39	131.587
380.63	131.488
380.86	132.025
381.10	131.788
381.33	131.400
381.56	131.225
381.80	132.250
382.03	132.313
382.27	132.100
382.50	132.000
382.74	131.875
382.97	131.387
383.21	131.563
383.44	131.863
383.67	131.738
383.91	131.150
384.14	132.488
384.38	132.563
384.61	132.462
384.84	132.637
385.08	133.087
385.31	132.613
385.55	132.650
385.78	132.938
386.02	132.938
386.25	132.200
386.48	132.688
386.72	132.813
386.95	132.225
387.19	132.637
387.42	132.900
387.65	133.425
387.89	133.075
388.12	132.700
388.36	133.000
388.59	132.813
388.82	133.025
389.06	133.587
389.29	133.738
389.53	133.250
389.76	133.400
389.99	133.275
390.23	133.475
390.46	133.400
390.70	133.500
390.93	133.563
391.16	133.462
391.40	133.938
391.63	133.875
391.87	134.063
392.10	134.100
392.33	133.825
392.57	133.950
392.80	133.625
393.03	134.300
393.27	134.038
393.50	134.400
393.74	134.288
393.97	134.725
394.20	134.250
394.44	134.625
394.67	134.837
394.90	134.325
395.14	133.438
395.37	134.300
395.60	134.200
395.84	134.337
396.07	134.087
396.31	134.225
396.54	134.475
396.77	134.825
397.01	134.613
397.24	134.975
397.47	135.225
397.71	135.113
397.94	134.837
398.17	135.663
398.41	134.688
398.64	134.875
398.87	134.587
399.11	135.475
399.34	134.900
399.57	135.200
399.81	134.988
400.04	134.988
400.27	135.163
400.51	134.875
400.74	134.975
400.97	135.012
401.21	134.850
401.44	135.363
401.67	135.087
401.91	135.762
402.14	135.813
402.37	135.525
402.61	135.637
402.84	135.825
403.07	135.938
403.31	136.250
403.54	135.788
403.77	135.600
404.00	135.875
404.24	136.225
404.47	136.212
404.70	136.863
404.94	135.650
405.17	135.825
405.40	136.063
405.64	135.825
405.87	136.175
406.10	136.075
406.34	135.313
406.57	136.075
406.80	136.238
407.03	136.188
407.27	136.288
407.50	135.975
407.73	135.825
407.97	135.900
408.20	135.950
408.43	136.363
408.66	136.475
408.90	136.725
409.13	136.462
409.36	136.288
409.60	136.425
409.83	136.775
410.06	136.863
410.29	136.988
410.53	136.975
410.76	137.025
410.99	137.212
411.22	137.325
411.46	137.500
411.69	137.325
411.92	136.337
412.16	137.325
412.39	137.488
412.62	137.438
412.85	137.125
413.09	137.238
413.32	137.700
413.55	137.750
413.78	137.587
414.02	138.250
414.25	138.050
414.48	138.762
414.71	138.163
414.95	138.363
415.18	138.075
415.41	138.863
415.64	138.038
415.88	139.012
416.11	139.100
416.34	139.063
416.57	139.425
416.80	139.275
417.04	139.613
417.27	139.663
417.50	139.663
417.73	140.825
417.97	140.863
418.20	140.813
418.43	140.950
418.66	141.325
418.90	141.525
419.13	141.925
419.36	142.025
419.59	142.712
419.82	142.512
420.06	143.188
420.29	142.475
420.52	143.887
420.75	144.100
420.98	144.450
421.22	144.450
421.45	145.625
421.68	145.875
421.91	146.025
422.15	145.850
422.38	146.938
422.61	146.775
422.84	149.200
423.07	148.900
423.31	149.375
423.54	151.238
423.77	150.400
424.00	151.337
424.23	152.637
424.46	153.900
424.70	154.575
424.93	153.438
425.16	156.475
425.39	155.837
425.62	157.975
425.86	158.413
426.09	159.250
426.32	159.975
426.55	161.563
426.78	162.850
427.01	163.150
427.25	165.200
427.48	167.675
427.71	166.738
427.94	168.887
428.17	171.225
428.40	173.425
428.64	172.387
428.87	174.825
429.10	178.137
429.33	179.813
429.56	180.813
429.79	185.488
430.03	182.913
430.26	186.725
430.49	186.025
430.72	192.663
430.95	193.175
431.18	197.387
431.42	198.688
431.65	203.288
431.88	207.000
432.11	207.525
432.34	206.500
432.57	211.988
432.80	216.100
433.04	216.175
433.27	223.850
433.50	224.712
433.73	231.087
433.96	234.462
434.19	242.475
434.42	245.188
434.65	248.762
434.89	248.712
435.12	255.950
435.35	261.350
435.58	266.150
435.81	267.450
436.04	273.075
436.27	282.788
436.50	283.450
436.74	291.475
436.97	292.025
437.20	300.200
437.43	304.275
437.66	316.900
437.89	322.712
438.12	337.075
438.35	332.375
438.58	341.288
438.82	353.175
439.05	366.050
439.28	364.438
439.51	379.900
439.74	378.750
439.97	392.587
440.20	413.650
440.43	422.862
440.66	432.850
440.89	437.587
441.12	448.013
441.36	461.100
441.59	483.813
441.82	504.337
442.05	497.688
442.28	517.713
442.51	511.763
442.74	541.313
442.97	552.662
443.20	548.300
443.43	570.700
443.66	612.388
443.89	640.675
444.13	616.575
444.36	636.088
444.59	672.350
444.82	703.487
445.05	702.513
445.28	737.013
445.51	778.550
445.74	761.800
445.97	772.188
446.20	807.313
446.43	823.612
446.66	861.188
446.89	853.813
447.12	871.825
447.35	917.950
447.58	985.650
447.81	934.763
448.05	980.463
448.28	971.438
448.51	1014.638
448.74	1020.100
448.97	1032.863
449.20	1086.213
449.43	1046.225
449.66	1067.863
449.89	1087.863
450.12	1116.762
450.35	1056.738
450.58	1133.300
450.81	1184.525
451.04	1217.950
451.27	1124.387
451.50	1161.912
451.73	1152.975
451.96	1173.838
452.19	1139.637
452.42	1152.550
452.65	1192.037
452.88	1154.338
453.11	1145.825
453.34	1167.938
453.57	1095.475
453.80	1152.400
454.03	1096.750
454.26	1050.175
454.49	1039.025
454.72	1042.975
454.95	1042.287
455.18	1004.037
455.41	959.838
455.64	967.025
455.87	929.925
456.10	919.925
456.33	931.688
456.56	907.412
456.79	891.638
457.02	845.825
457.25	795.112
457.48	771.750
457.71	807.013
457.94	805.263
458.17	768.675
458.40	726.662
458.63	708.688
458.86	712.875
459.09	696.925
459.32	673.963
459.55	688.575
459.78	661.112
460.01	637.325
460.24	654.213
460.47	622.175
460.70	599.037
460.93	592.700
461.16	619.412
461.39	598.638
461.62	578.000
461.85	586.400
462.08	582.400
462.31	563.638
462.54	563.700
462.77	551.150
463.00	546.987
463.22	548.450
463.45	549.725
463.68	542.013
463.91	548.338
464.14	540.263
464.37	535.588
464.60	535.088
464.83	523.925
465.06	541.475
465.29	529.787
465.52	521.850
465.75	514.200
465.98	520.987
466.21	522.425
466.44	511.413
466.67	497.700
466.90	512.813
467.12	503.700
467.35	500.788
467.58	487.438
467.81	488.763
468.04	481.337
468.27	475.413
468.50	474.788
468.73	477.737
468.96	461.650
469.19	470.575
469.42	456.487
469.65	454.425
469.87	443.950
470.10	439.663
470.33	437.550
470.56	433.638
470.79	428.313
471.02	422.263
471.25	420.188
471.48	417.950
471.71	411.688
471.94	401.263
472.17	404.600
472.39	398.775
472.62	391.425
472.85	384.400
473.08	381.550
473.31	371.225
473.54	375.237
473.77	371.212
474.00	372.163
474.23	360.263
474.45	361.763
474.68	352.663
474.91	347.462
475.14	350.388
475.37	343.950
475.60	342.212
475.83	342.237
476.06	338.587
476.28	338.350
476.51	336.063
476.74	332.288
476.97	330.550
477.20	328.525
477.43	327.375
477.66	324.000
477.88	326.737
478.11	325.125
478.34	322.462
478.57	323.025
478.80	319.825
479.03	320.550
479.26	320.737
479.48	320.075
479.71	319.538
479.94	320.337
480.17	319.388
480.40	317.575
480.63	321.050
480.86	318.438
481.08	318.375
481.31	320.413
481.54	321.175
481.77	321.875
482.00	318.737
482.23	321.375
482.45	320.737
482.68	320.712
482.91	321.462
483.14	322.212
483.37	321.650
483.60	321.675
483.82	321.975
484.05	322.900
484.28	324.288
484.51	325.138
484.74	324.763
484.96	324.513
485.19	325.288
485.42	325.612
485.65	326.063
485.88	325.775
486.10	329.050
486.33	329.313
486.56	329.163
486.79	329.138
487.02	331.388
487.25	334.063
487.47	333.325
487.70	334.413
487.93	335.750
488.16	338.712
488.38	339.325
488.61	338.862
488.84	341.712
489.07	341.462
489.30	344.612
489.52	345.575
489.75	348.212
489.98	347.725
490.21	353.250
490.44	354.650
490.66	357.362
490.89	359.800
491.12	361.212
491.35	364.925
491.57	367.125
491.80	368.538
492.03	374.063
492.26	378.413
492.49	381.013
492.71	385.275
492.94	386.050
493.17	392.275
493.40	396.063
493.62	401.750
493.85	403.425
494.08	409.800
494.31	414.375
494.53	419.350
494.76	423.050
494.99	431.175
495.22	435.737
495.44	440.375
495.67	447.112
495.90	452.450
496.13	456.438
496.35	463.525
496.58	471.063
496.81	475.925
497.04	481.775
497.26	488.175
497.49	494.350
497.72	502.525
497.95	508.038
498.17	515.525
498.40	524.375
498.63	531.188
498.85	535.763
499.08	544.050
499.31	552.362
499.54	562.662
499.76	568.225
499.99	579.412
500.22	582.713
500.44	591.763
500.67	601.588
500.90	606.862
501.13	616.362
501.35	626.013
501.58	635.338
501.81	642.975
502.03	648.338
502.26	659.875
502.49	667.213
502.72	679.938
502.94	692.438
503.17	698.487
503.40	705.287
503.62	717.875
503.85	724.938
504.08	739.438
504.30	745.450
504.53	754.825
504.76	762.237
504.98	773.838
505.21	786.362
505.44	788.412
505.67	799.450
505.89	812.438
506.12	824.813
506.35	834.213
506.57	842.638
506.80	849.175
507.03	868.112
507.25	867.013
507.48	880.112
507.71	888.688
507.93	905.175
508.16	913.888
508.39	919.325
508.61	930.813
508.84	940.025
509.07	948.975
509.29	960.200
509.52	967.350
509.75	976.063
509.97	985.400
510.20	997.650
510.43	1010.850
510.65	1016.037
510.88	1020.287
511.10	1037.075
511.33	1050.412
511.56	1053.463
511.78	1064.588
512.01	1073.125
512.24	1082.000
512.46	1099.300
512.69	1104.188
512.92	1112.662
513.14	1119.488
513.37	1129.162
513.59	1140.450
513.82	1147.050
514.05	1152.688
514.27	1161.688
514.50	1176.363
514.73	1186.438
514.95	1195.700
515.18	1198.750
515.40	1207.975
515.63	1216.425
515.86	1227.475
516.08	1235.475
516.31	1244.750
516.54	1252.787
516.76	1259.950
516.99	1264.762
517.21	1276.613
517.44	1283.588
517.67	1287.662
517.89	1291.525
518.12	1315.975
518.34	1313.338
518.57	1316.213
518.80	1331.887
519.02	1333.813
519.25	1343.925
519.47	1352.113
519.70	1363.137
519.93	1363.238
520.15	1379.725
520.38	1377.975
520.60	1391.650
520.83	1389.400
521.05	1400.250
521.28	1401.887
521.51	1414.012
521.73	1427.938
521.96	1429.550
522.18	1430.050
522.41	1442.525
522.63	1445.613
522.86	1452.700
523.09	1462.950
523.31	1464.325
523.54	1465.700
523.76	1482.438
523.99	1478.450
524.21	1490.650
524.44	1499.162
524.67	1502.475
524.89	1512.938
525.12	1513.300
525.34	1518.425
525.57	1525.325
525.79	1525.550
526.02	1533.100
526.24	1536.813
526.47	1553.825
526.69	1551.012
526.92	1559.200
527.15	1559.438
527.37	1566.438
527.60	1588.813
527.82	1584.225
528.05	1590.800
528.27	1595.175
528.50	1603.675
528.72	1610.838
528.95	1620.938
529.17	1630.537
529.40	1633.750
529.62	1633.675
529.85	1641.500
530.07	1647.338
530.30	1650.400
530.52	1659.588
530.75	1662.563
530.97	1667.050
531.20	1675.313
531.43	1677.613
531.65	1684.363
531.88	1695.425
532.10	1691.325
532.33	1700.950
532.55	1708.662
532.78	1714.738
533.00	1716.537
533.23	1725.662
533.45	1723.850
533.68	1733.075
533.90	1738.725
534.13	1751.262
534.35	1750.100
534.58	1763.775
534.80	1762.475
535.03	1772.338
535.25	1778.162
535.47	1775.713
535.70	1784.975
535.92	1800.162
536.15	1786.150
536.37	1801.313
536.60	1818.938
536.82	1813.825
537.05	1816.188
537.27	1826.863
537.50	1832.700
537.72	1845.287
537.95	1845.137
538.17	1861.363
538.40	1865.400
538.62	1860.925
538.85	1867.387
539.07	1870.225
539.29	1867.825
539.52	1876.887
539.74	1896.012
539.97	1904.588
540.19	1901.787
540.42	1903.550
540.64	1920.550
540.87	1914.063
541.09	1921.200
541.32	1928.438
541.54	1932.738
541.76	1938.250
541.99	1944.438
542.21	1944.438
542.44	1960.863
542.66	1961.650
542.89	1971.725
543.11	1970.463
543.33	1984.475
543.56	1998.400
543.78	2005.088
544.01	1995.563
544.23	2015.912
544.46	2018.750
544.68	2031.900
544.90	2024.063
545.13	2026.537
545.35	2027.475
545.58	2045.400
545.80	2041.225
546.03	2060.337
546.25	2047.500
546.47	2044.137
546.70	2065.038
546.92	2066.413
547.15	2068.250
547.37	2068.875
547.59	2074.750
547.82	2081.837
548.04	2092.988
548.27	2099.925
548.49	2104.462
548.71	2106.450
548.94	2106.625
549.16	2116.313
549.39	2112.462
549.61	2116.913
549.83	2128.688
550.06	2122.700
550.28	2127.300
550.50	2131.238
550.73	2149.875
550.95	2147.563
551.18	2148.350
551.40	2144.462
551.62	2151.375
551.85	2153.825
552.07	2161.625
552.29	2156.512
552.52	2173.925
552.74	2174.150
552.97	2177.225
553.19	2178.262
553.41	2190.337
553.64	2183.413
553.86	2198.238
554.08	2191.850
554.31	2191.563
554.53	2194.800
554.75	2188.512
554.98	2204.288
555.20	2197.300
555.42	2194.075
555.65	2204.850
555.87	2194.450
556.10	2214.350
556.32	2224.962
556.54	2227.475
556.77	2226.563
556.99	2222.925
557.21	2220.450
557.44	2235.375
557.66	2231.738
557.88	2228.988
558.11	2224.875
558.33	2229.800
558.55	2239.900
558.78	2248.688
559.00	2236.087
559.22	2252.087
559.44	2252.100
559.67	2250.275
559.89	2246.150
560.11	2250.837
560.34	2255.137
560.56	2254.675
560.78	2254.925
561.01	2258.688
561.23	2256.675
561.45	2275.962
561.68	2267.813
561.90	2275.800
562.12	2289.212
562.35	2263.575
562.57	2281.625
562.79	2287.875
563.01	2270.163
563.24	2278.350
563.46	2281.313
563.68	2278.225
563.91	2283.837
564.13	2284.975
564.35	2300.050
564.57	2292.038
564.80	2287.563
565.02	2287.262
565.24	2287.988
565.47	2285.900
565.69	2299.025
565.91	2304.550
566.13	2303.175
566.36	2291.850
566.58	2295.462
566.80	2310.500
567.02	2318.200
567.25	2302.938
567.47	2305.375
567.69	2333.212
567.92	2315.688
568.14	2317.038
568.36	2324.813
568.58	2335.087
568.81	2335.750
569.03	2325.012
569.25	2330.337
569.47	2335.313
569.70	2340.550
569.92	2337.550
570.14	2342.550
570.36	2341.275
570.59	2326.087
570.81	2348.738
571.03	2347.575
571.25	2344.637
571.47	2360.738
571.70	2361.150
571.92	2366.075
572.14	2369.913
572.36	2360.725
572.59	2365.275
572.81	2380.038
573.03	2363.512
573.25	2370.962
573.48	2373.837
573.70	2369.100
573.92	2383.637
574.14	2383.663
574.36	2383.450
574.59	2383.800
574.81	2386.538
575.03	2372.238
575.25	2387.875
575.47	2410.387
575.70	2400.925
575.92	2410.125
576.14	2392.762
576.36	2410.538
576.59	2419.738
576.81	2416.800
577.03	2420.063
577.25	2415.738
577.47	2415.613
577.69	2418.788
577.92	2412.450
578.14	2420.500
578.36	2425.262
578.58	2433.413
578.80	2424.262
579.03	2420.200
579.25	2435.488
579.47	2455.950
579.69	2440.650
579.91	2453.425
580.14	2442.988
580.36	2445.975
580.58	2438.000
580.80	2447.462
581.02	2460.975
581.24	2451.313
581.47	2448.488
581.69	2459.050
581.91	2452.475
582.13	2460.087
582.35	2463.063
582.57	2482.525
582.79	2459.363
583.02	2450.413
583.24	2473.438
583.46	2459.700
583.68	2463.625
583.90	2462.100
584.12	2472.900
584.35	2476.837
584.57	2460.363
584.79	2471.788
585.01	2470.200
585.23	2465.300
585.45	2466.063
585.67	2467.000
585.90	2477.325
586.12	2450.625
586.34	2484.188
586.56	2475.250
586.78	2492.875
587.00	2482.387
587.22	2478.500
587.44	2479.900
587.67	2478.188
587.89	2472.438
588.11	2493.938
588.33	2480.125
588.55	2472.350
588.77	2479.863
588.99	2472.038
589.21	2458.363
589.43	2486.050
589.66	2493.750
589.88	2490.488
590.10	2497.525
590.32	2484.663
590.54	2468.512
590.76	2464.900
590.98	2478.175
591.20	2482.475
591.42	2475.313
591.64	2470.000
591.87	2490.500
592.09	2481.225
592.31	2497.325
592.53	2489.075
592.75	2484.550
592.97	2495.488
593.19	2489.450
593.41	2488.387
593.63	2487.438
593.85	2469.300
594.07	2486.788
594.29	2472.975
594.52	2474.488
594.74	2484.012
594.96	2459.137
595.18	2467.637
595.40	2464.613
595.62	2465.012
595.84	2463.350
596.06	2462.125
596.28	2469.712
596.50	2456.600
596.72	2445.300
596.94	2448.988
597.16	2450.813
597.38	2459.225
597.60	2458.762
597.82	2449.775
598.05	2450.850
598.27	2434.675
598.49	2432.712
598.71	2433.788
598.93	2437.025
599.15	2438.600
599.37	2427.300
599.59	2425.087
599.81	2422.688
600.03	2422.000
600.25	2420.125
600.47	2418.913
600.69	2404.712
600.91	2413.975
601.13	2401.938
601.35	2401.438
601.57	2400.288
601.79	2395.462
602.01	2399.337
602.23	2379.950
602.45	2382.675
602.67	2374.637
602.89	2358.150
603.11	2369.150
603.33	2351.500
603.55	2373.800
603.77	2373.738
603.99	2361.363
604.21	2345.600
604.43	2336.462
604.65	2333.438
604.87	2342.587
605.09	2330.212
605.31	2335.075
605.53	2321.337
605.75	2304.250
605.97	2292.863
606.19	2300.538
606.41	2301.425
606.63	2298.113
606.85	2294.488
607.07	2281.050
607.29	2280.900
607.51	2278.850
607.73	2267.125
607.95	2264.075
608.17	2256.825
608.39	2243.325
608.61	2245.200
608.83	2241.450
609.05	2237.012
609.27	2218.488
609.49	2225.050
609.71	2216.825
609.93	2231.337
610.15	2213.563
610.37	2211.762
610.59	2181.800
610.81	2193.300
611.03	2172.063
611.24	2174.650
611.46	2167.375
611.68	2162.025
611.90	2159.288
612.12	2142.600
612.34	2128.000
612.56	2137.363
612.78	2126.325
613.00	2125.100
613.22	2121.925
613.44	2125.563
613.66	2103.688
613.88	2094.075
614.10	2096.200
614.32	2080.050
614.54	2092.337
614.75	2081.500
614.97	2074.512
615.19	2068.813
615.41	2057.113
615.63	2051.825
615.85	2049.637
616.07	2044.113
616.29	2036.075
616.51	2026.662
616.73	2021.825
616.95	2008.137
617.17	2004.213
617.38	1991.425
617.60	1991.450
617.82	1988.975
618.04	1971.600
618.26	1971.688
618.48	1946.563
618.70	1959.338
618.92	1936.425
619.14	1944.537
619.36	1942.412
619.57	1935.025
619.79	1928.600
620.01	1912.887
620.23	1902.825
620.45	1907.838
620.67	1905.113
620.89	1889.662
621.11	1889.662
621.33	1892.550
621.54	1874.287
621.76	1864.875
621.98	1852.613
622.20	1852.275
622.42	1834.875
622.64	1845.900
622.86	1839.012
623.07	1817.838
623.29	1814.400
623.51	1803.700
623.73	1800.637
623.95	1788.988
624.17	1790.775
624.39	1784.100
624.60	1785.200
624.82	1776.988
625.04	1763.050
625.26	1765.238
625.48	1752.100
625.70	1757.050
625.92	1746.550
626.13	1736.887
626.35	1729.137
626.57	1711.950
626.79	1714.488
627.01	1697.625
627.23	1694.975
627.44	1692.650
627.66	1689.475
627.88	1683.975
628.10	1672.550
628.32	1661.725
628.54	1654.250
628.75	1648.963
628.97	1637.150
629.19	1645.213
629.41	1638.325
629.63	1630.050
629.84	1618.725
630.06	1607.963
630.28	1603.100
630.50	1605.400
630.72	1593.850
630.94	1591.650
631.15	1586.488
631.37	1582.662
631.59	1573.738
631.81	1554.637
632.03	1549.238
632.24	1551.662
632.46	1552.300
632.68	1536.188
632.90	1541.850
633.11	1527.137
633.33	1522.387
633.55	1515.350
633.77	1513.775
633.99	1498.900
634.20	1509.863
634.42	1493.863
634.64	1492.400
634.86	1478.275
635.08	1474.037
635.29	1471.012
635.51	1458.262
635.73	1461.375
635.95	1446.500
636.16	1445.450
636.38	1449.825
636.60	1427.225
636.82	1425.512
637.03	1414.463
637.25	1417.250
637.47	1408.050
637.69	1410.500
637.90	1400.213
638.12	1387.613
638.34	1381.363
638.56	1378.088
638.77	1371.375
638.99	1361.363
639.21	1361.725
639.43	1356.125
